VAMAS Surface Chemical Analysis Standard Data Transfer Format 1988 May 4
Not Specified
Kratos Axis
Not Specified
/C=/data/Axis/Victoria/mjr9_116a.dset
0
MAP
REGULAR
6
1
32768
32768
1
Etch Time
s
0
0
0
0
7
Wide/2
Not Specified
2005
9
14
10
41
24
0
4
   Lens Mode:Hybrid   Resolution:Pass energy 160   Iris(Aperture):slot(Slot)
   Anode:Mono(Al (Mono))(150 W)   Step(meV): 1000.0   Dwell(ms): 164        Sweeps: 3        Acquisition Time(s): 540     
   Acquired On :05/09/14 10:41:24   C/N :On
   
XPS
16384
16384
0
Mono(Al (Mono))
1486.69
150
1E+37
1E+37
6000
6000
1E+37
1E+37
FAT
160
1E+37
-4.455
0
1E+37
1E+37
1E+37
1E+37
Wide
None
-1
Kinetic Energy
eV
386.69
1
2
Intensity
d
Transmission
d
pulse counting
0.163636
3
0
1E+37
1E+37
1E+37
0
2202
47
30809
27.0476
36.9298
8085
27.6983
8163
27.7037
8164
27.709
8097
27.7144
8081
27.7197
7811
27.7251
7941
27.7304
7916
27.7357
7864
27.7411
8024
27.7464
7982
27.7518
8099
27.7571
8044
27.7624
7930
27.7678
8034
27.7731
8058
27.7785
8081
27.7838
8205
27.7892
8143
27.7945
8195
27.7998
8144
27.8052
8254
27.8105
8426
27.8159
8335
27.8212
8382
27.8266
8263
27.8319
8354
27.8372
8257
27.8426
8231
27.8479
8215
27.8533
8311
27.8586
8385
27.864
8296
27.8693
8380
27.8746
8381
27.88
8376
27.8853
8378
27.8907
8345
27.896
8224
27.9014
8467
27.9067
8455
27.912
8623
27.9174
8399
27.9227
8475
27.9281
8466
27.9334
8469
27.9387
8668
27.9441
8517
27.9494
8656
27.9548
8578
27.9601
8679
27.9655
8645
27.9708
8583
27.9761
8641
27.9815
8674
27.9868
8633
27.9922
8530
27.9975
8565
28.0029
8739
28.0082
8854
28.0135
8811
28.0189
8711
28.0242
8671
28.0296
8839
28.0349
8706
28.0403
8755
28.0456
8615
28.0509
8711
28.0563
8723
28.0616
8732
28.067
8722
28.0809
8732
28.0992
8762
28.1175
8906
28.1358
8861
28.1541
8864
28.1724
8842
28.1908
9005
28.2091
8998
28.2274
8996
28.2457
8986
28.264
8895
28.2823
8938
28.3006
9009
28.3189
8988
28.3373
8993
28.3556
8985
28.3739
9075
28.3922
8893
28.4105
8869
28.4288
8757
28.4471
8833
28.4654
8771
28.4838
8926
28.5021
8886
28.5204
8793
28.5387
9024
28.557
9078
28.5753
8890
28.5936
9001
28.6119
9279
28.6303
9240
28.6486
9134
28.6669
9142
28.6852
9155
28.7035
9165
28.7218
9122
28.7401
8933
28.7584
8837
28.7768
8847
28.7951
8681
28.8134
8563
28.8317
8488
28.85
8398
28.8683
8373
28.8866
8194
28.905
8183
28.9233
8228
28.9416
8241
28.9599
8246
28.9782
8373
28.9965
8491
29.0148
8857
29.0331
9127
29.0515
9165
29.0698
9188
29.0881
9220
29.1064
9031
29.1247
8974
29.143
8644
29.1613
8475
29.1796
8450
29.198
8112
29.2163
7763
29.2346
7582
29.2529
7352
29.2712
7210
29.2895
7025
29.3078
6921
29.3261
6855
29.3445
6871
29.3628
6819
29.3811
6946
29.3994
6817
29.4177
6791
29.436
6836
29.4543
6808
29.4726
6826
29.491
6815
29.5093
6738
29.5276
6903
29.5459
6822
29.5642
6933
29.5825
6865
29.6008
7014
29.6192
6886
29.6375
6948
29.6558
6941
29.6741
6987
29.6924
6831
29.7107
6920
29.729
6992
29.7473
7085
29.7657
7056
29.784
6992
29.8023
7086
29.8206
7060
29.8389
6984
29.8572
7068
29.8755
7061
29.8938
7028
29.9122
6912
29.9305
6897
29.9488
7069
29.9671
7078
29.9854
7114
30.0037
7173
30.022
7199
30.0403
7062
30.0587
7030
30.077
7067
30.0953
7186
30.1136
7062
30.1319
7080
30.1502
7149
30.1685
7070
30.1869
7155
30.2052
7176
30.2235
7109
30.2418
7294
30.2601
7117
30.2784
7305
30.2967
7128
30.315
7156
30.3334
7194
30.3517
7296
30.37
7204
30.3883
7333
30.4066
7167
30.4249
7197
30.4432
7357
30.4615
7363
30.4799
7253
30.4982
7265
30.5165
7285
30.5348
7269
30.5531
7339
30.5714
7153
30.5897
7276
30.608
7313
30.6264
7308
30.6447
7249
30.663
7355
30.6813
7341
30.6996
7355
30.7179
7365
30.7362
7317
30.7545
7418
30.7729
7441
30.7912
7298
30.8095
7260
30.8278
7317
30.8461
7397
30.8644
7438
30.8827
7317
30.9011
7410
30.9194
7463
30.9377
7431
30.956
7542
30.9743
7373
30.9926
7480
31.0109
7568
31.0292
7589
31.0476
7673
31.0659
7583
31.0842
7663
31.1025
7604
31.1208
7562
31.1391
7437
31.1574
7488
31.1757
7546
31.1941
7558
31.2124
7564
31.2307
7675
31.249
7803
31.2673
7569
31.2856
7431
31.3039
7477
31.3222
7536
31.3406
7590
31.3589
7592
31.3772
7654
31.3955
7641
31.4138
7642
31.4321
7555
31.4504
7668
31.4688
7695
31.4871
7672
31.5054
7867
31.5237
7798
31.542
7757
31.5603
7835
31.5786
7786
31.5969
7719
31.6153
7673
31.6336
7590
31.6519
7647
31.6702
7674
31.6885
7651
31.7068
7737
31.7251
7945
31.7434
7774
31.7618
7870
31.7801
7777
31.7984
7768
31.8167
7759
31.835
7765
31.8533
7908
31.8716
7799
31.8899
7878
31.9082
7830
31.9264
7895
31.9447
7900
31.9629
7974
31.9811
7958
31.9994
7973
32.0176
7857
32.0358
7891
32.054
8000
32.0723
7860
32.0905
7998
32.1087
8001
32.127
8014
32.1452
7930
32.1634
7940
32.1817
8058
32.1999
8107
32.2181
8144
32.2364
8095
32.2546
7947
32.2728
8003
32.291
8009
32.3093
7880
32.3275
8025
32.3457
8010
32.364
8022
32.3822
7959
32.4004
8031
32.4187
8039
32.4369
8135
32.4551
8119
32.4734
8181
32.4916
8123
32.5098
8103
32.528
8200
32.5463
8146
32.5645
8136
32.5827
8253
32.601
8070
32.6192
8101
32.6374
8255
32.6557
8240
32.6739
8157
32.6921
8164
32.7104
8049
32.7286
8267
32.7468
8295
32.7651
8237
32.7833
8203
32.8015
8286
32.8197
8262
32.838
8458
32.8562
8278
32.8744
8282
32.8927
8323
32.9109
8281
32.9291
8296
32.9474
8360
32.9656
8344
32.9838
8395
33.0021
8338
33.0203
8324
33.0385
8412
33.0568
8329
33.075
8286
33.0932
8359
33.1114
8391
33.1297
8543
33.1479
8497
33.1661
8503
33.1844
8456
33.2026
8452
33.2208
8508
33.2391
8451
33.2573
8403
33.2755
8408
33.2938
8464
33.312
8574
33.3302
8547
33.3484
8532
33.3667
8497
33.3849
8584
33.4031
8579
33.4214
8543
33.4396
8684
33.4578
8590
33.4761
8639
33.4943
8505
33.5125
8506
33.5308
8748
33.549
8692
33.5672
8663
33.5854
8786
33.6037
8666
33.6219
8706
33.6401
8652
33.6584
8833
33.6766
8702
33.6948
8708
33.7131
8675
33.7313
8769
33.7495
8742
33.7678
8753
33.786
8744
33.8042
8617
33.8225
8661
33.8407
8840
33.8589
8856
33.8771
8779
33.8954
8670
33.9136
8694
33.9318
8760
33.9501
8842
33.9683
8819
33.9865
8732
34.0048
8599
34.023
8729
34.0412
8846
34.0595
8865
34.0777
8854
34.0959
8823
34.1141
8912
34.1324
8755
34.1506
8765
34.1688
8706
34.1871
8782
34.2053
8769
34.2235
8939
34.2418
8851
34.26
8740
34.2782
8792
34.2965
8905
34.3147
8942
34.3329
8871
34.3512
8959
34.3694
8888
34.3876
8868
34.4058
8901
34.4241
8879
34.4423
8924
34.4605
8918
34.4788
8947
34.497
9041
34.5152
9079
34.5335
9070
34.5517
9063
34.5699
9181
34.5882
9085
34.6064
8998
34.6246
9127
34.6428
9090
34.6611
9103
34.6793
8951
34.6975
9079
34.7158
9162
34.734
9176
34.7522
9276
34.7705
9011
34.7887
9224
34.8069
9117
34.8252
9232
34.8434
9246
34.8616
9178
34.8798
9170
34.8981
9296
34.9163
9244
34.9345
9137
34.9528
9304
34.971
9274
34.9892
9373
35.0075
9403
35.0257
9295
35.0439
9356
35.0622
9212
35.0804
9244
35.0986
9390
35.1169
9428
35.1351
9341
35.1533
9404
35.1715
9492
35.1898
9409
35.208
9356
35.2262
9384
35.2445
9481
35.2627
9340
35.2809
9297
35.2992
9320
35.3174
9359
35.3356
9422
35.3539
9455
35.3721
9436
35.3903
9411
35.4085
9462
35.4268
9418
35.445
9399
35.4632
9543
35.4815
9594
35.4997
9685
35.5179
9389
35.5362
9442
35.5544
9415
35.5726
9371
35.5909
9535
35.6091
9572
35.6273
9459
35.6455
9577
35.6638
9516
35.682
9519
35.7002
9461
35.7185
9631
35.7367
9776
35.7549
9708
35.7732
9555
35.7914
9483
35.8096
9580
35.8279
9626
35.8461
9537
35.8643
9640
35.8826
9498
35.9008
9545
35.919
9575
35.9372
9675
35.9449
9753
35.9516
9575
35.9583
9698
35.965
9632
35.9717
9707
35.9784
9631
35.9851
9615
35.9918
9849
35.9985
9657
36.0052
9730
36.0119
9501
36.0186
9638
36.0253
9636
36.032
9674
36.0387
9764
36.0454
9758
36.0521
9678
36.0588
9593
36.0655
9695
36.0722
9665
36.0789
9779
36.0856
9877
36.0923
9716
36.099
9524
36.1057
9599
36.1124
9725
36.1191
9739
36.1258
9640
36.1325
9744
36.1392
9472
36.1459
9360
36.1526
9390
36.1593
9304
36.166
9353
36.1727
9351
36.1794
9328
36.1861
9483
36.1928
9398
36.1995
9625
36.2062
9533
36.2129
9685
36.2196
9874
36.2263
9951
36.233
9917
36.2397
10219
36.2464
10068
36.2531
10110
36.2598
10125
36.2665
9900
36.2732
9853
36.2799
9441
36.2866
9378
36.2933
9200
36.3
9008
36.3067
8726
36.3134
8441
36.3201
8077
36.3268
7748
36.3335
7403
36.3402
7374
36.3469
7158
36.3536
7060
36.3603
7102
36.367
7152
36.3737
7097
36.3804
7920
36.3871
10675
36.3938
16108
36.4005
22068
36.4072
21318
36.4139
13575
36.4206
7983
36.4273
6463
36.434
6207
36.4407
6132
36.4474
6074
36.4541
6041
36.4608
6036
36.4675
6006
36.4742
5839
36.4809
5956
36.4876
5946
36.4943
6048
36.501
6097
36.5077
6034
36.5144
5961
36.5211
5980
36.5278
6006
36.5345
6040
36.5412
6089
36.5479
5992
36.5546
5966
36.5613
5879
36.568
6052
36.5747
5989
36.5814
6016
36.5881
5969
36.5948
5990
36.6015
6035
36.6082
6026
36.6149
6063
36.6216
6064
36.6283
6036
36.635
5953
36.6417
6178
36.6484
6165
36.6551
6069
36.6618
6017
36.6685
6098
36.6752
6008
36.6819
6058
36.6886
6109
36.6953
6054
36.702
6084
36.7087
6114
36.7154
6109
36.7221
6188
36.7288
6101
36.7355
6194
36.7422
6042
36.7489
6203
36.7556
6253
36.7623
6111
36.769
6173
36.7757
6152
36.7824
6111
36.7891
6137
36.7958
6261
36.8025
6223
36.8092
6114
36.8159
6235
36.8226
6153
36.8293
6265
36.836
6176
36.8427
6224
36.8494
6183
36.8561
6093
36.8628
6195
36.8695
6220
36.8762
6153
36.8829
5997
36.8896
6239
36.8963
6243
36.903
6266
36.9097
6365
36.9164
6356
36.9231
6302
36.9298
6216
36.9117
6109
36.8827
6191
36.8537
6172
36.8248
6237
36.7958
6373
36.7668
6242
36.7378
6128
36.7088
6152
36.6798
6212
36.6508
6297
36.6218
6326
36.5929
6184
36.5639
6242
36.5349
6450
36.5059
6201
36.4769
6211
36.4479
6195
36.4189
6158
36.3899
6163
36.3609
6166
36.332
6231
36.303
6224
36.274
6271
36.245
6306
36.216
6425
36.187
6451
36.158
6405
36.129
6409
36.1001
6340
36.0711
6295
36.0421
6440
36.0131
6253
35.9841
6337
35.9551
6120
35.9261
6021
35.8971
5934
35.8681
6015
35.8392
5886
35.8102
5955
35.7812
5892
35.7522
5756
35.7232
5702
35.6942
5634
35.6652
5572
35.6362
5440
35.6073
5409
35.5783
5298
35.5493
5228
35.5203
5379
35.4913
5794
35.4623
6543
35.4333
8364
35.4043
10947
35.3754
10342
35.3464
7201
35.3174
5641
35.2884
5233
35.2594
5166
35.2304
5101
35.2014
5144
35.1724
5116
35.1434
5193
35.1145
5074
35.0855
5131
35.0565
5098
35.0275
5194
34.9985
5165
34.9695
5152
34.9405
5164
34.9115
5198
34.8826
5141
34.8536
5309
34.8246
5204
34.7956
5094
34.7666
5167
34.7376
5162
34.7086
5246
34.6796
5410
34.6506
5359
34.6217
5277
34.5927
5336
34.5637
5266
34.5347
5289
34.5057
5360
34.4767
5404
34.4477
5518
34.4187
5358
34.3898
5321
34.3608
5313
34.3318
5441
34.3028
5441
34.2738
5423
34.2448
5434
34.2158
5399
34.1868
5541
34.1578
5411
34.1289
5461
34.0999
5539
34.0709
5563
34.0419
5471
34.0129
5471
33.9839
5553
33.9549
5749
33.9259
5726
33.897
5711
33.868
5664
33.839
5605
33.81
5628
33.781
5701
33.752
5719
33.723
5613
33.694
5575
33.6651
5686
33.6361
5755
33.6071
5698
33.5781
5703
33.5491
5722
33.5201
5875
33.4911
5795
33.4621
5849
33.4331
5991
33.4042
5923
33.3752
5855
33.3462
5839
33.3172
5842
33.2882
5878
33.2592
5808
33.2302
5906
33.2012
5933
33.1723
5883
33.1433
5844
33.1143
6038
33.0853
6076
33.0563
6068
33.0273
6045
32.9983
6108
32.9693
6302
32.9403
6207
32.9114
6293
32.8824
6517
32.8534
6414
32.8244
6477
32.7954
6571
32.7664
6573
32.7374
6513
32.7084
6637
32.6795
6550
32.6505
6491
32.6215
6321
32.5925
5915
32.5635
5658
32.5345
5277
32.5055
4851
32.4765
4451
32.4475
4171
32.4186
3870
32.3896
3436
32.3606
2987
32.3316
2705
32.3026
2538
32.2736
2511
32.2446
2619
32.2156
3259
32.1867
5419
32.1577
8783
32.1287
13173
32.0997
21311
32.0707
30809
32.0417
25841
32.0127
10311
31.9837
2700
31.9547
1585
31.9258
1299
31.8968
1212
31.8678
1180
31.8388
1087
31.8098
1010
31.7808
988
31.7518
977
31.7228
1040
31.6939
1123
31.6649
1220
31.6359
1092
31.6069
1095
31.5779
1053
31.5489
1016
31.5199
980
31.4909
967
31.462
976
31.433
955
31.404
951
31.375
928
31.346
883
31.317
900
31.288
869
31.259
875
31.23
937
31.2011
979
31.1721
977
31.1431
918
31.1141
955
31.1243
918
31.1476
925
31.1709
921
31.1942
882
31.2174
898
31.2407
872
31.264
801
31.2873
874
31.3106
877
31.3339
775
31.3571
844
31.3804
851
31.4037
826
31.427
850
31.4503
845
31.4736
869
31.4968
842
31.5201
945
31.5434
1081
31.5667
1233
31.59
1184
31.6133
1010
31.6365
923
31.6598
873
31.6831
898
31.7064
846
31.7297
797
31.753
809
31.7762
796
31.7995
830
31.8228
826
31.8461
832
31.8694
779
31.8927
809
31.9159
781
31.9392
762
31.9625
722
31.9858
743
32.0091
762
32.0324
762
32.0556
713
32.0789
703
32.1022
682
32.1255
674
32.1488
696
32.1721
687
32.1953
724
32.2186
706
32.2419
759
32.2652
947
32.2885
1040
32.3118
1056
32.335
985
32.3583
929
32.3816
826
32.4049
774
32.4282
673
32.4515
682
32.4747
653
32.498
647
32.5213
681
32.5446
705
32.5679
717
32.5912
657
32.6144
642
32.6377
639
32.661
661
32.6843
652
32.7076
679
32.7309
635
32.7541
585
32.7774
573
32.8007
568
32.824
577
32.8473
585
32.8706
560
32.8938
565
32.9171
538
32.9404
527
32.9637
551
32.987
594
33.0103
734
33.0336
1054
33.0568
1340
33.0801
1127
33.1034
782
33.1267
635
33.15
574
33.1732
607
33.1965
549
33.2198
527
33.2431
520
33.2664
544
33.2729
529
33.2261
527
33.1793
534
33.1325
586
33.0857
659
33.0389
691
32.9921
690
32.9454
620
32.8986
550
32.8518
512
32.805
503
32.7582
496
32.7114
510
32.6646
533
32.6179
563
32.5711
480
32.5243
517
32.4775
510
32.4307
523
32.3839
525
32.3371
517
32.2904
500
32.2436
513
32.1968
529
32.15
525
32.1032
539
32.0564
509
32.0096
471
31.9629
519
31.9161
528
31.8693
494
31.8225
516
31.7757
498
31.7289
537
31.6821
558
31.6354
519
31.5886
536
31.5418
538
31.495
551
31.4482
521
31.4014
496
31.3546
514
31.3079
502
31.2611
524
31.2143
540
31.1675
518
31.1207
556
31.0739
490
31.0272
501
30.9804
492
30.9336
537
30.8868
546
30.84
512
30.7932
525
30.7464
525
30.6997
633
30.6529
755
30.6061
732
30.5593
578
30.5125
553
30.4657
490
30.4189
513
30.3722
531
30.3254
507
30.2786
501
30.2318
490
30.185
515
30.1382
515
30.0914
499
30.0447
501
29.9979
502
29.9511
500
29.9043
445
29.8575
507
29.8107
512
29.7639
511
29.7172
513
29.6704
494
29.6236
476
29.5768
473
29.53
502
29.4832
517
29.4364
485
29.3897
471
29.3429
500
29.2961
468
29.2493
510
29.2025
461
29.1557
496
29.1089
505
29.0622
497
29.0154
456
28.9686
469
28.9218
479
28.875
452
28.8282
453
28.7815
479
28.7347
479
28.6879
489
28.6411
520
28.5943
507
28.5475
493
28.5007
472
28.454
484
28.4072
505
28.3604
502
28.3136
497
28.2668
465
28.22
493
28.1732
533
28.1265
538
28.0797
485
28.0329
482
27.9861
497
27.9393
503
27.8925
442
27.8457
423
27.799
467
27.7522
479
27.7054
457
27.6586
425
27.6118
398
27.565
395
27.5182
401
27.4715
419
27.4247
380
27.3779
373
27.3311
400
27.2843
436
27.2375
489
27.1907
528
27.144
658
27.0972
662
27.0504
691
27.0476
644
27.0476
571
27.0476
469
27.0476
425
27.0476
387
27.0476
433
27.0476
510
27.0476
476
27.0476
434
27.0476
435
27.0476
411
27.0476
423
27.0476
328
27.0476
281
27.0476
295
27.0476
293
27.0476
250
27.0476
224
27.0476
185
27.0476
186
27.0476
155
27.0476
115
27.0476
47
27.0476
Wide/5
Not Specified
2005
9
14
11
47
20
0
4
   Lens Mode:Hybrid   Resolution:Pass energy 160   Iris(Aperture):slot(Slot)
   Anode:Mono(Al (Mono))(150 W)   Step(meV): 1000.0   Dwell(ms): 300        Sweeps: 5        Acquisition Time(s): 902     
   Acquired On :05/09/14 11:47:20   C/N :On
   
XPS
16384
16384
0
Mono(Al (Mono))
1486.69
150
1E+37
1E+37
6000
6000
1E+37
1E+37
FAT
160
1E+37
-4.455
0
1E+37
1E+37
1E+37
1E+37
Wide
None
-1
Kinetic Energy
eV
886.69
1
2
Intensity
d
Transmission
d
pulse counting
0.3
5
0
1E+37
1E+37
1E+37
0
1202
148
91985
27.0476
36.9298
29857
35.9372
30022
35.9449
29792
35.9516
29964
35.9583
29975
35.965
29895
35.9717
29985
35.9784
30174
35.9851
30231
35.9918
30005
35.9985
29917
36.0052
29847
36.0119
29762
36.0186
29831
36.0253
29861
36.032
29843
36.0387
29845
36.0454
30108
36.0521
30129
36.0588
30310
36.0655
30093
36.0722
30094
36.0789
30108
36.0856
30360
36.0923
30435
36.099
30212
36.1057
30208
36.1124
30130
36.1191
30104
36.1258
30058
36.1325
29925
36.1392
29821
36.1459
29514
36.1526
29684
36.1593
29645
36.166
29303
36.1727
29013
36.1794
29051
36.1861
29096
36.1928
29398
36.1995
29355
36.2062
29600
36.2129
30118
36.2196
30665
36.2263
31023
36.233
31088
36.2397
31177
36.2464
31473
36.2531
31364
36.2598
30777
36.2665
30771
36.2732
30160
36.2799
29290
36.2866
28787
36.2933
28411
36.3
27710
36.3067
26833
36.3134
25807
36.3201
24792
36.3268
23610
36.3335
23102
36.3402
22602
36.3469
22356
36.3536
22326
36.3603
22055
36.367
21969
36.3737
22666
36.3804
26020
36.3871
35647
36.3938
53158
36.4005
68784
36.4072
63209
36.4139
39906
36.4206
24308
36.4273
20210
36.434
19404
36.4407
19122
36.4474
19025
36.4541
18846
36.4608
18671
36.4675
18693
36.4742
18555
36.4809
18490
36.4876
18611
36.4943
18669
36.501
18639
36.5077
18549
36.5144
18440
36.5211
18511
36.5278
18553
36.5345
18659
36.5412
18713
36.5479
18594
36.5546
18722
36.5613
18791
36.568
18536
36.5747
18801
36.5814
18816
36.5881
18907
36.5948
18898
36.6015
19054
36.6082
18808
36.6149
18936
36.6216
18784
36.6283
18710
36.635
18968
36.6417
19236
36.6484
19123
36.6551
19004
36.6618
18997
36.6685
18903
36.6752
18977
36.6819
19117
36.6886
18991
36.6953
19067
36.702
18921
36.7087
19261
36.7154
19303
36.7221
18961
36.7288
19161
36.7355
18909
36.7422
19022
36.7489
19083
36.7556
19191
36.7623
19277
36.769
19203
36.7757
19361
36.7824
19238
36.7891
19317
36.7958
19447
36.8025
19263
36.8092
19459
36.8159
19188
36.8226
19194
36.8293
19271
36.836
19508
36.8427
19471
36.8494
19449
36.8561
19283
36.8628
19307
36.8695
19387
36.8762
19401
36.8829
19379
36.8896
19577
36.8963
19451
36.903
19377
36.9097
19425
36.9164
19548
36.9231
19509
36.9298
19456
36.9117
19621
36.8827
19427
36.8537
19314
36.8248
19307
36.7958
19532
36.7668
19448
36.7378
19382
36.7088
19550
36.6798
19570
36.6508
19428
36.6218
19498
36.5929
19517
36.5639
19579
36.5349
19333
36.5059
19292
36.4769
19135
36.4479
19411
36.4189
19517
36.3899
19321
36.3609
19363
36.332
19308
36.303
19322
36.274
19309
36.245
19535
36.216
19671
36.187
19522
36.158
19532
36.129
19838
36.1001
19822
36.0711
19725
36.0421
19727
36.0131
19593
35.9841
19596
35.9551
19332
35.9261
19120
35.8971
18842
35.8681
18975
35.8392
18789
35.8102
18466
35.7812
18151
35.7522
17637
35.7232
17503
35.6942
17484
35.6652
17040
35.6362
16850
35.6073
16783
35.5783
16582
35.5493
16528
35.5203
17042
35.4913
18264
35.4623
21189
35.4333
27201
35.4043
34031
35.3754
30547
35.3464
21403
35.3174
17007
35.2884
16230
35.2594
16113
35.2304
15884
35.2014
15999
35.1724
15976
35.1434
15892
35.1145
15739
35.0855
15930
35.0565
15987
35.0275
16137
34.9985
16240
34.9695
16314
34.9405
16267
34.9115
15981
34.8826
16118
34.8536
16157
34.8246
16358
34.7956
16284
34.7666
16322
34.7376
16299
34.7086
16254
34.6796
16409
34.6506
16364
34.6217
16540
34.5927
16522
34.5637
16623
34.5347
16730
34.5057
16807
34.4767
16530
34.4477
16586
34.4187
16895
34.3898
16918
34.3608
17004
34.3318
16789
34.3028
17094
34.2738
16976
34.2448
16849
34.2158
17042
34.1868
17000
34.1578
17012
34.1289
17122
34.0999
17153
34.0709
17281
34.0419
17289
34.0129
17325
33.9839
17489
33.9549
17641
33.9259
17650
33.897
17766
33.868
17875
33.839
17626
33.81
17550
33.781
17531
33.752
17654
33.723
17565
33.694
17618
33.6651
17583
33.6361
17839
33.6071
17873
33.5781
17789
33.5491
17997
33.5201
18081
33.4911
18122
33.4621
18003
33.4331
18060
33.4042
18156
33.3752
18111
33.3462
18030
33.3172
18059
33.2882
18076
33.2592
18055
33.2302
18055
33.2012
18233
33.1723
18084
33.1433
18092
33.1143
18282
33.0853
18266
33.0563
18506
33.0273
18707
32.9983
18823
32.9693
19027
32.9403
19433
32.9114
19473
32.8824
19773
32.8534
20258
32.8244
20085
32.7954
20221
32.7664
19975
32.7374
20278
32.7084
20228
32.6795
20185
32.6505
19608
32.6215
19015
32.5925
18501
32.5635
17505
32.5345
16108
32.5055
14985
32.4765
13747
32.4475
12735
32.4186
11800
32.3896
10443
32.3606
9383
32.3316
8562
32.3026
7915
32.2736
7796
32.2446
8396
32.2156
11202
32.1867
18260
32.1577
28950
32.1287
44193
32.0997
70813
32.0707
91985
32.0417
69534
32.0127
27427
31.9837
8255
31.9547
4820
31.9258
4170
31.8968
3826
31.8678
3623
31.8388
3405
31.8098
3400
31.7808
3311
31.7518
3278
31.7228
3365
31.6939
3591
31.6649
3714
31.6359
3623
31.6069
3513
31.5779
3434
31.5489
3295
31.5199
3150
31.4909
3070
31.462
2988
31.433
3033
31.404
3016
31.375
2935
31.346
2981
31.317
2990
31.288
3067
31.259
3135
31.23
3008
31.2011
3079
31.1721
3058
31.1431
3141
31.1141
2933
31.1243
2995
31.1476
3022
31.1709
2895
31.1942
2872
31.2174
2920
31.2407
2909
31.264
2757
31.2873
2860
31.3106
2717
31.3339
2839
31.3571
2723
31.3804
2783
31.4037
2820
31.427
2761
31.4503
2713
31.4736
2691
31.4968
2893
31.5201
3224
31.5434
3644
31.5667
3915
31.59
3689
31.6133
3389
31.6365
3029
31.6598
2842
31.6831
2836
31.7064
2749
31.7297
2640
31.753
2589
31.7762
2621
31.7995
2643
31.8228
2667
31.8461
2665
31.8694
2586
31.8927
2610
31.9159
2629
31.9392
2544
31.9625
2506
31.9858
2505
32.0091
2438
32.0324
2457
32.0556
2358
32.0789
2355
32.1022
2298
32.1255
2260
32.1488
2256
32.1721
2227
32.1953
2260
32.2186
2406
32.2419
2505
32.2652
2875
32.2885
3247
32.3118
3384
32.335
3162
32.3583
2890
32.3816
2736
32.4049
2387
32.4282
2174
32.4515
2168
32.4747
2261
32.498
2316
32.5213
2319
32.5446
2315
32.5679
2234
32.5912
2271
32.6144
2159
32.6377
2163
32.661
2130
32.6843
2126
32.7076
2066
32.7309
1991
32.7541
1938
32.7774
1936
32.8007
1861
32.824
1827
32.8473
1729
32.8706
1819
32.8938
1811
32.9171
1765
32.9404
1797
32.9637
1853
32.987
1999
33.0103
2639
33.0336
3630
33.0568
4146
33.0801
3411
33.1034
2331
33.1267
1910
33.15
1967
33.1732
1932
33.1965
1788
33.2198
1727
33.2431
1591
33.2664
1596
33.2729
1683
33.2261
1753
33.1793
1818
33.1325
2083
33.0857
2321
33.0389
2459
32.9921
2229
32.9454
1913
32.8986
1789
32.8518
1613
32.805
1629
32.7582
1598
32.7114
1522
32.6646
1683
32.6179
1680
32.5711
1617
32.5243
1662
32.4775
1618
32.4307
1679
32.3839
1688
32.3371
1638
32.2904
1609
32.2436
1606
32.1968
1681
32.15
1707
32.1032
1687
32.0564
1682
32.0096
1698
31.9629
1616
31.9161
1626
31.8693
1691
31.8225
1698
31.7757
1684
31.7289
1722
31.6821
1664
31.6354
1651
31.5886
1766
31.5418
1666
31.495
1642
31.4482
1649
31.4014
1682
31.3546
1607
31.3079
1719
31.2611
1716
31.2143
1668
31.1675
1715
31.1207
1624
31.0739
1664
31.0272
1592
30.9804
1594
30.9336
1607
30.8868
1583
30.84
1674
30.7932
1736
30.7464
1935
30.6997
2256
30.6529
2442
30.6061
2256
30.5593
1819
30.5125
1640
30.4657
1645
30.4189
1604
30.3722
1670
30.3254
1648
30.2786
1664
30.2318
1711
30.185
1668
30.1382
1615
30.0914
1683
30.0447
1669
29.9979
1624
29.9511
1637
29.9043
1572
29.8575
1592
29.8107
1668
29.7639
1641
29.7172
1645
29.6704
1596
29.6236
1598
29.5768
1668
29.53
1663
29.4832
1715
29.4364
1677
29.3897
1654
29.3429
1725
29.2961
1618
29.2493
1565
29.2025
1584
29.1557
1577
29.1089
1572
29.0622
1565
29.0154
1576
28.9686
1592
28.9218
1449
28.875
1513
28.8282
1537
28.7815
1553
28.7347
1574
28.6879
1504
28.6411
1583
28.5943
1643
28.5475
1679
28.5007
1663
28.454
1673
28.4072
1582
28.3604
1573
28.3136
1588
28.2668
1683
28.22
1573
28.1732
1561
28.1265
1556
28.0797
1637
28.0329
1610
27.9861
1582
27.9393
1625
27.8925
1549
27.8457
1490
27.799
1455
27.7522
1493
27.7054
1364
27.6586
1306
27.6118
1339
27.565
1291
27.5182
1297
27.4715
1307
27.4247
1263
27.3779
1264
27.3311
1399
27.2843
1479
27.2375
1634
27.1907
1866
27.144
2230
27.0972
2327
27.0504
2267
27.0476
2007
27.0476
1700
27.0476
1437
27.0476
1335
27.0476
1367
27.0476
1539
27.0476
1673
27.0476
1520
27.0476
1521
27.0476
1348
27.0476
1308
27.0476
1274
27.0476
1086
27.0476
949
27.0476
932
27.0476
884
27.0476
808
27.0476
700
27.0476
634
27.0476
582
27.0476
452
27.0476
308
27.0476
148
27.0476
O 1s/6
Not Specified
2005
9
14
12
4
14
0
4
   Lens Mode:Hybrid   Resolution:Pass energy 10    Iris(Aperture):slot(Slot)
   Anode:Mono(Al (Mono))(150 W)   Step(meV): 100.0    Dwell(ms): 261        Sweeps: 10       Acquisition Time(s): 603     
   Acquired On :05/09/14 12:04:14   C/N :On
   
XPS
16384
16384
0
Mono(Al (Mono))
1486.69
150
1E+37
1E+37
6000
6000
1E+37
1E+37
FAT
10
1E+37
-4.455
0
1E+37
1E+37
1E+37
1E+37
O
1s
-1
Kinetic Energy
eV
948.69
0.1
2
Intensity
d
Transmission
d
pulse counting
0.26087
10
0
1E+37
1E+37
1E+37
0
462
235
1525
0.279953
0.280338
304
0.279953
328
0.279955
324
0.279957
321
0.279958
333
0.27996
341
0.279962
338
0.279963
350
0.279965
322
0.279967
316
0.279968
331
0.27997
314
0.279972
331
0.279973
322
0.279975
289
0.279977
305
0.279978
306
0.27998
316
0.279982
307
0.279983
316
0.279985
310
0.279987
302
0.279988
312
0.27999
296
0.279992
311
0.279994
284
0.279995
345
0.279997
297
0.279999
298
0.28
276
0.280002
310
0.280004
281
0.280005
290
0.280007
299
0.280009
274
0.28001
287
0.280012
274
0.280014
271
0.280015
288
0.280017
300
0.280019
293
0.28002
256
0.280022
312
0.280024
303
0.280025
276
0.280027
299
0.280029
303
0.28003
333
0.280032
293
0.280034
326
0.280035
336
0.280037
338
0.280039
356
0.28004
344
0.280042
361
0.280044
406
0.280045
422
0.280047
457
0.280049
439
0.28005
472
0.280052
552
0.280054
545
0.280055
569
0.280057
608
0.280059
682
0.28006
753
0.280062
747
0.280064
781
0.280065
820
0.280067
896
0.280069
895
0.28007
994
0.280072
1018
0.280074
1111
0.280075
1146
0.280077
1229
0.280079
1230
0.28008
1293
0.280082
1373
0.280084
1360
0.280085
1429
0.280087
1424
0.280089
1424
0.28009
1458
0.280092
1525
0.280094
1485
0.280095
1445
0.280097
1443
0.280099
1353
0.2801
1192
0.280102
1052
0.280104
986
0.280106
899
0.280107
752
0.280109
635
0.280111
579
0.280112
478
0.280114
469
0.280116
375
0.280117
357
0.280119
359
0.280121
310
0.280122
335
0.280124
300
0.280126
271
0.280127
296
0.280129
307
0.280131
287
0.280132
253
0.280134
300
0.280136
330
0.280137
310
0.280139
277
0.280141
271
0.280142
269
0.280144
273
0.280146
298
0.280147
316
0.280149
300
0.280151
254
0.280152
274
0.280154
283
0.280156
260
0.280157
276
0.280159
277
0.280161
257
0.280162
279
0.280164
300
0.280166
294
0.280167
302
0.280169
293
0.280171
283
0.280172
247
0.280174
249
0.280176
263
0.280177
289
0.280179
272
0.280181
294
0.280182
244
0.280184
281
0.280186
297
0.280187
300
0.280189
278
0.280191
279
0.280192
269
0.280194
263
0.280196
296
0.280197
257
0.280199
282
0.280201
280
0.280202
290
0.280204
279
0.280206
268
0.280208
260
0.280209
302
0.280211
261
0.280213
304
0.280214
276
0.280216
271
0.280218
276
0.280219
276
0.280221
266
0.280223
273
0.280224
274
0.280226
264
0.280228
252
0.280229
278
0.280231
279
0.280233
287
0.280234
266
0.280236
284
0.280238
268
0.280239
295
0.280241
256
0.280243
268
0.280244
260
0.280246
271
0.280248
260
0.280249
288
0.280251
276
0.280253
268
0.280254
288
0.280256
275
0.280258
283
0.280259
306
0.280261
287
0.280263
272
0.280264
256
0.280266
250
0.280268
264
0.280269
272
0.280271
289
0.280273
249
0.280274
275
0.280276
278
0.280278
278
0.280279
299
0.280281
276
0.280283
279
0.280284
276
0.280286
290
0.280288
289
0.280289
288
0.280291
286
0.280293
289
0.280294
275
0.280296
271
0.280298
273
0.280299
256
0.280301
297
0.280303
282
0.280304
290
0.280306
289
0.280308
280
0.280309
271
0.280311
264
0.280313
242
0.280315
280
0.280316
266
0.280318
250
0.28032
275
0.280321
267
0.280323
299
0.280325
267
0.280326
255
0.280328
263
0.28033
264
0.280331
242
0.280333
275
0.280335
235
0.280336
296
0.280338
N 1s/7
Not Specified
2005
9
14
12
4
14
0
4
   Lens Mode:Hybrid   Resolution:Pass energy 10    Iris(Aperture):slot(Slot)
   Anode:Mono(Al (Mono))(150 W)   Step(meV): 100.0    Dwell(ms): 286        Sweeps: 10       Acquisition Time(s): 603     
   Acquired On :05/09/14 12:04:14   C/N :On
   
XPS
16384
16384
0
Mono(Al (Mono))
1486.69
150
1E+37
1E+37
6000
6000
1E+37
1E+37
FAT
10
1E+37
-4.455
0
1E+37
1E+37
1E+37
1E+37
N
1s
-1
Kinetic Energy
eV
1076.69
0.1
2
Intensity
d
Transmission
d
pulse counting
0.285714
10
0
1E+37
1E+37
1E+37
0
422
221
878
0.284683
0.286339
297
0.284683
315
0.284691
273
0.284699
288
0.284707
304
0.284715
258
0.284723
253
0.284731
263
0.284738
283
0.284746
285
0.284754
300
0.284762
274
0.28477
294
0.284778
299
0.284786
287
0.284794
302
0.284802
269
0.284809
285
0.284817
291
0.284825
270
0.284833
272
0.284841
300
0.284849
285
0.284857
295
0.284865
305
0.284872
293
0.28488
270
0.284888
311
0.284896
262
0.284904
263
0.284912
257
0.28492
287
0.284928
272
0.284936
262
0.284943
281
0.284951
274
0.284959
278
0.284967
289
0.284975
258
0.284983
267
0.284991
281
0.284999
266
0.285006
252
0.285014
262
0.285022
268
0.28503
267
0.285038
271
0.285046
268
0.285054
279
0.285062
266
0.28507
251
0.285077
276
0.285085
289
0.285093
251
0.285101
252
0.285109
281
0.285117
277
0.285125
305
0.285133
266
0.285141
266
0.285148
265
0.285156
269
0.285164
255
0.285172
279
0.28518
275
0.285188
240
0.285196
237
0.285204
273
0.285211
263
0.285219
261
0.285227
246
0.285235
245
0.285243
260
0.285251
272
0.285259
249
0.285267
260
0.285275
261
0.285282
252
0.28529
251
0.285298
278
0.285306
275
0.285314
244
0.285322
253
0.28533
271
0.285338
252
0.285345
260
0.285353
249
0.285361
285
0.285369
268
0.285377
289
0.285385
292
0.285393
308
0.285401
295
0.285409
296
0.285416
325
0.285424
292
0.285432
340
0.28544
321
0.285448
327
0.285456
364
0.285464
384
0.285472
366
0.285479
399
0.285487
377
0.285495
381
0.285503
398
0.285511
362
0.285519
412
0.285527
406
0.285535
404
0.285543
434
0.28555
461
0.285558
509
0.285566
527
0.285574
574
0.285582
625
0.28559
645
0.285598
720
0.285606
747
0.285614
824
0.285621
878
0.285629
854
0.285637
876
0.285645
833
0.285653
797
0.285661
803
0.285669
638
0.285677
605
0.285684
539
0.285692
469
0.2857
460
0.285708
388
0.285716
387
0.285724
354
0.285732
328
0.28574
303
0.285748
275
0.285755
319
0.285763
276
0.285771
286
0.285779
268
0.285787
255
0.285795
268
0.285803
262
0.285811
303
0.285818
289
0.285826
244
0.285834
253
0.285842
263
0.28585
251
0.285858
266
0.285866
255
0.285874
271
0.285882
282
0.285889
293
0.285897
264
0.285905
244
0.285913
253
0.285921
282
0.285929
234
0.285937
268
0.285945
249
0.285952
272
0.28596
234
0.285968
270
0.285976
260
0.285984
251
0.285992
257
0.286
259
0.286008
281
0.286016
262
0.286023
229
0.286031
260
0.286039
260
0.286047
256
0.286055
233
0.286063
286
0.286071
267
0.286079
221
0.286086
274
0.286094
248
0.286102
277
0.28611
269
0.286118
255
0.286126
240
0.286134
259
0.286142
279
0.28615
267
0.286157
261
0.286165
244
0.286173
246
0.286181
249
0.286189
274
0.286197
251
0.286205
254
0.286213
251
0.286221
277
0.286228
281
0.286236
290
0.286244
266
0.286252
259
0.28626
252
0.286268
267
0.286276
245
0.286284
234
0.286291
245
0.286299
261
0.286307
277
0.286315
235
0.286323
271
0.286331
254
0.286339
C 1s/8
Not Specified
2005
9
14
12
4
14
0
4
   Lens Mode:Hybrid   Resolution:Pass energy 10    Iris(Aperture):slot(Slot)
   Anode:Mono(Al (Mono))(150 W)   Step(meV): 100.0    Dwell(ms): 261        Sweeps: 10       Acquisition Time(s): 603     
   Acquired On :05/09/14 12:04:14   C/N :On
   
XPS
16384
16384
0
Mono(Al (Mono))
1486.69
150
1E+37
1E+37
6000
6000
1E+37
1E+37
FAT
10
1E+37
-4.455
0
1E+37
1E+37
1E+37
1E+37
C
1s
-1
Kinetic Energy
eV
1193.69
0.1
2
Intensity
d
Transmission
d
pulse counting
0.26087
10
0
1E+37
1E+37
1E+37
0
462
37
2692
0.293907
0.29572
143
0.293907
117
0.293915
129
0.293922
131
0.29393
128
0.293938
118
0.293946
101
0.293954
118
0.293962
105
0.29397
122
0.293978
93
0.293985
115
0.293993
102
0.294001
104
0.294009
92
0.294017
109
0.294025
100
0.294033
105
0.294041
99
0.294049
100
0.294056
96
0.294064
104
0.294072
95
0.29408
104
0.294088
107
0.294096
95
0.294104
95
0.294112
77
0.294119
89
0.294127
92
0.294135
89
0.294143
83
0.294151
83
0.294159
82
0.294167
70
0.294175
78
0.294183
91
0.29419
105
0.294198
97
0.294206
98
0.294214
81
0.294222
82
0.29423
91
0.294238
86
0.294246
103
0.294253
109
0.294261
99
0.294269
103
0.294277
106
0.294285
107
0.294293
116
0.294301
124
0.294309
104
0.294317
137
0.294324
148
0.294332
167
0.29434
160
0.294348
194
0.294356
219
0.294364
240
0.294372
249
0.29438
249
0.294388
285
0.294395
307
0.294403
307
0.294411
353
0.294419
428
0.294427
447
0.294435
464
0.294443
497
0.294451
548
0.294458
546
0.294466
523
0.294474
570
0.294482
529
0.29449
534
0.294498
488
0.294506
519
0.294514
542
0.294522
557
0.294529
600
0.294537
699
0.294545
772
0.294553
851
0.294561
952
0.294569
1055
0.294577
1064
0.294585
1196
0.294592
1230
0.2946
1262
0.294608
1281
0.294616
1261
0.294624
1291
0.294632
1329
0.29464
1405
0.294648
1461
0.294656
1637
0.294663
1796
0.294671
2032
0.294679
2272
0.294687
2429
0.294695
2596
0.294703
2692
0.294711
2612
0.294719
2535
0.294726
2191
0.294734
1938
0.294742
1575
0.29475
1207
0.294758
889
0.294766
646
0.294774
508
0.294782
321
0.29479
251
0.294797
196
0.294805
147
0.294813
112
0.294821
100
0.294829
79
0.294837
64
0.294845
84
0.294853
66
0.294861
66
0.294868
71
0.294876
65
0.294884
68
0.294892
61
0.2949
62
0.294908
67
0.294916
63
0.294924
56
0.294931
50
0.294939
71
0.294947
59
0.294955
57
0.294963
49
0.294971
49
0.294979
59
0.294987
46
0.294995
61
0.295002
42
0.29501
53
0.295018
50
0.295026
54
0.295034
49
0.295042
76
0.29505
65
0.295058
58
0.295065
56
0.295073
48
0.295081
55
0.295089
57
0.295097
62
0.295105
47
0.295113
53
0.295121
56
0.295129
55
0.295136
56
0.295144
58
0.295152
62
0.29516
54
0.295168
53
0.295176
64
0.295184
54
0.295192
42
0.295199
68
0.295207
46
0.295215
61
0.295223
59
0.295231
57
0.295239
58
0.295247
42
0.295255
42
0.295263
56
0.29527
52
0.295278
46
0.295286
46
0.295294
46
0.295302
44
0.29531
46
0.295318
48
0.295326
48
0.295334
49
0.295341
49
0.295349
48
0.295357
47
0.295365
55
0.295373
61
0.295381
55
0.295389
43
0.295397
41
0.295404
51
0.295412
48
0.29542
48
0.295428
59
0.295436
64
0.295444
60
0.295452
56
0.29546
64
0.295468
37
0.295475
51
0.295483
54
0.295491
71
0.295499
51
0.295507
44
0.295515
43
0.295523
42
0.295531
46
0.295538
68
0.295546
53
0.295554
50
0.295562
52
0.29557
51
0.295578
61
0.295586
62
0.295594
64
0.295602
41
0.295609
56
0.295617
54
0.295625
55
0.295633
64
0.295641
61
0.295649
55
0.295657
60
0.295665
65
0.295672
62
0.29568
61
0.295688
55
0.295696
59
0.295704
55
0.295712
50
0.29572
S 2p/9
Not Specified
2005
9
14
12
4
14
0
4
   Lens Mode:Hybrid   Resolution:Pass energy 10    Iris(Aperture):slot(Slot)
   Anode:Mono(Al (Mono))(150 W)   Step(meV): 100.0    Dwell(ms): 333        Sweeps: 20       Acquisition Time(s): 1207    
   Acquired On :05/09/14 12:04:14   C/N :On
   
XPS
16384
16384
0
Mono(Al (Mono))
1486.69
150
1E+37
1E+37
6000
6000
1E+37
1E+37
FAT
10
1E+37
-4.455
0
1E+37
1E+37
1E+37
1E+37
S
2p
-1
Kinetic Energy
eV
1312.69
0.1
2
Intensity
d
Transmission
d
pulse counting
0.333333
20
0
1E+37
1E+37
1E+37
0
362
55
243
0.299821
0.300522
78
0.299821
74
0.299824
80
0.299828
90
0.299831
97
0.299834
94
0.299838
81
0.299841
79
0.299844
79
0.299848
91
0.299851
90
0.299855
90
0.299858
80
0.299861
96
0.299865
87
0.299868
81
0.299871
91
0.299875
93
0.299878
78
0.299882
74
0.299885
100
0.299888
87
0.299892
84
0.299895
70
0.299898
66
0.299902
84
0.299905
91
0.299908
71
0.299912
73
0.299915
60
0.299919
76
0.299922
67
0.299925
65
0.299929
82
0.299932
75
0.299935
90
0.299939
84
0.299942
84
0.299945
87
0.299949
91
0.299952
67
0.299956
83
0.299959
76
0.299962
73
0.299966
90
0.299969
84
0.299972
73
0.299976
97
0.299979
94
0.299983
81
0.299986
74
0.299989
89
0.299993
74
0.299996
73
0.299999
86
0.300003
89
0.300006
99
0.300009
112
0.300013
112
0.300016
119
0.30002
115
0.300023
128
0.300026
108
0.30003
148
0.300033
142
0.300036
129
0.30004
173
0.300043
164
0.300046
170
0.30005
205
0.300053
192
0.300057
194
0.30006
179
0.300063
195
0.300067
232
0.30007
206
0.300073
214
0.300077
189
0.30008
197
0.300083
216
0.300087
214
0.30009
218
0.300094
206
0.300097
202
0.3001
243
0.300104
210
0.300107
199
0.30011
165
0.300114
163
0.300117
125
0.300121
115
0.300124
116
0.300127
106
0.300131
87
0.300134
101
0.300137
77
0.300141
93
0.300144
79
0.300147
97
0.300151
96
0.300154
82
0.300158
84
0.300161
91
0.300164
92
0.300168
92
0.300171
93
0.300174
94
0.300178
82
0.300181
82
0.300184
95
0.300188
91
0.300191
80
0.300195
90
0.300198
76
0.300201
100
0.300205
100
0.300208
103
0.300211
89
0.300215
103
0.300218
99
0.300222
94
0.300225
86
0.300228
113
0.300232
91
0.300235
90
0.300238
97
0.300242
98
0.300245
105
0.300248
99
0.300252
114
0.300255
97
0.300259
97
0.300262
105
0.300265
85
0.300269
93
0.300272
90
0.300275
77
0.300279
81
0.300282
79
0.300285
76
0.300289
76
0.300292
89
0.300296
85
0.300299
65
0.300302
79
0.300306
88
0.300309
81
0.300312
85
0.300316
69
0.300319
93
0.300323
80
0.300326
72
0.300329
77
0.300333
76
0.300336
66
0.300339
93
0.300343
78
0.300346
76
0.300349
55
0.300353
85
0.300356
79
0.30036
87
0.300363
82
0.300366
63
0.30037
87
0.300373
76
0.300376
79
0.30038
86
0.300383
81
0.30039
72
0.300401
86
0.300412
69
0.300423
84
0.300434
65
0.300445
82
0.300456
77
0.300467
80
0.300478
74
0.300489
74
0.3005
77
0.300511
93
0.300522
Au 4f/10
Not Specified
2005
9
14
12
4
14
0
4
   Lens Mode:Hybrid   Resolution:Pass energy 10    Iris(Aperture):slot(Slot)
   Anode:Mono(Al (Mono))(150 W)   Step(meV): 100.0    Dwell(ms): 200        Sweeps: 20       Acquisition Time(s): 1204    
   Acquired On :05/09/14 12:04:14   C/N :On
   
XPS
16384
16384
0
Mono(Al (Mono))
1486.69
150
1E+37
1E+37
6000
6000
1E+37
1E+37
FAT
10
1E+37
-4.455
0
1E+37
1E+37
1E+37
1E+37
Au
4f
-1
Kinetic Energy
eV
1386.69
0.1
2
Intensity
d
Transmission
d
pulse counting
0.2
20
0
1E+37
1E+37
1E+37
0
602
26
84
0.306691
0.309997
77
0.306691
84
0.306702
68
0.306713
78
0.306725
66
0.306736
62
0.306747
67
0.306758
69
0.306769
54
0.30678
71
0.306791
46
0.306802
49
0.306813
55
0.306824
53
0.306835
49
0.306846
50
0.306857
48
0.306868
43
0.306879
42
0.30689
48
0.306901
43
0.306912
50
0.306923
44
0.306934
43
0.306945
53
0.306956
47
0.306967
44
0.306978
48
0.306989
48
0.307
55
0.307011
46
0.307022
50
0.307033
39
0.307044
44
0.307055
59
0.307066
47
0.307077
37
0.307088
43
0.307099
44
0.30711
48
0.307121
50
0.307132
50
0.307143
49
0.307154
51
0.307165
37
0.307176
51
0.307187
43
0.307198
46
0.307209
41
0.30722
38
0.307231
38
0.307242
51
0.307253
45
0.307264
40
0.307275
50
0.307286
39
0.307297
48
0.307308
42
0.307319
39
0.30733
57
0.307341
52
0.307353
46
0.307364
39
0.307375
52
0.307386
43
0.307397
48
0.307408
45
0.307419
47
0.30743
42
0.307441
47
0.307452
42
0.307463
50
0.307474
50
0.307485
50
0.307496
60
0.307507
46
0.307518
40
0.307529
38
0.30754
50
0.307551
51
0.307562
50
0.307573
42
0.307584
52
0.307595
46
0.307606
44
0.307617
47
0.307628
32
0.307639
47
0.30765
49
0.307661
65
0.307672
59
0.307683
49
0.307694
50
0.307705
39
0.307716
38
0.307727
50
0.307738
53
0.307749
46
0.30776
52
0.307771
46
0.307782
48
0.307793
45
0.307804
60
0.307815
50
0.307826
37
0.307837
48
0.307848
39
0.307859
39
0.30787
53
0.307881
54
0.307892
52
0.307903
52
0.307914
43
0.307925
41
0.307936
44
0.307947
52
0.307958
44
0.307969
55
0.307981
35
0.307992
58
0.308003
44
0.308014
50
0.308025
39
0.308036
42
0.308047
49
0.308058
53
0.308069
44
0.30808
39
0.308091
48
0.308102
45
0.308113
43
0.308124
48
0.308135
49
0.308146
42
0.308157
44
0.308168
46
0.308179
53
0.30819
51
0.308201
35
0.308212
36
0.308223
48
0.308234
42
0.308245
43
0.308256
33
0.308267
41
0.308278
53
0.308289
46
0.3083
37
0.308311
34
0.308322
50
0.308333
46
0.308344
44
0.308355
48
0.308366
38
0.308377
55
0.308388
45
0.308399
50
0.30841
32
0.308421
53
0.308432
47
0.308443
46
0.308454
31
0.308465
42
0.308476
53
0.308487
47
0.308498
41
0.308509
45
0.30852
51
0.308531
44
0.308542
44
0.308553
45
0.308564
44
0.308575
40
0.308586
44
0.308597
43
0.308608
41
0.308619
46
0.308631
64
0.308642
50
0.308653
53
0.308664
48
0.308675
44
0.308686
45
0.308697
35
0.308708
34
0.308719
43
0.30873
49
0.308741
47
0.308752
47
0.308763
45
0.308774
54
0.308785
48
0.308796
38
0.308807
43
0.308818
36
0.308829
47
0.30884
43
0.308851
45
0.308862
45
0.308873
45
0.308884
47
0.308895
50
0.308906
57
0.308917
39
0.308928
41
0.308939
49
0.30895
46
0.308961
50
0.308972
43
0.308983
53
0.308994
55
0.309005
44
0.309016
46
0.309027
41
0.309038
40
0.309049
51
0.30906
51
0.309071
41
0.309082
50
0.309093
38
0.309104
51
0.309115
52
0.309126
37
0.309137
51
0.309148
40
0.309159
40
0.30917
59
0.309181
51
0.309192
61
0.309203
43
0.309214
45
0.309225
42
0.309236
53
0.309247
33
0.309259
51
0.30927
36
0.309281
34
0.309292
55
0.309303
48
0.309314
57
0.309325
45
0.309336
54
0.309347
59
0.309358
53
0.309369
42
0.30938
26
0.309391
44
0.309402
41
0.309413
50
0.309424
47
0.309435
54
0.309446
39
0.309457
41
0.309468
54
0.309479
48
0.30949
55
0.309501
42
0.309512
54
0.309523
55
0.309534
54
0.309545
52
0.309556
58
0.309567
50
0.309578
39
0.309589
52
0.3096
52
0.309611
49
0.309622
48
0.309633
49
0.309644
49
0.309655
52
0.309666
40
0.309677
43
0.309688
37
0.309699
49
0.30971
51
0.309721
52
0.309732
50
0.309743
55
0.309754
46
0.309765
53
0.309776
44
0.309787
32
0.309798
47
0.309809
50
0.30982
47
0.309831
51
0.309842
40
0.309853
39
0.309864
48
0.309875
51
0.309886
50
0.309898
33
0.309909
47
0.30992
53
0.309931
52
0.309942
52
0.309953
44
0.309964
42
0.309975
42
0.309986
49
0.309997
end of experiment

