VAMAS Surface Chemical Analysis Standard Data Transfer Format 1988 May 4
Not Specified
Kratos Axis
Not Specified
/C=/data/Axis/Victoria/mj9_59c.dset
0
MAP
REGULAR
6
1
32768
32768
1
Etch Time
s
0
0
0
0
9
Wide/2
Not Specified
2005
9
14
11
3
26
0
4
   Lens Mode:Hybrid   Resolution:Pass energy 160   Iris(Aperture):slot(Slot)
   Anode:Mono(Al (Mono))(150 W)   Step(meV): 1000.0   Dwell(ms): 164        Sweeps: 3        Acquisition Time(s): 540     
   Acquired On :05/09/14 11:03:26   C/N :On
   
XPS
16384
16384
0
Mono(Al (Mono))
1486.69
150
1E+37
1E+37
6000
6000
1E+37
1E+37
FAT
160
1E+37
-4.455
0
1E+37
1E+37
1E+37
1E+37
Wide
None
-1
Kinetic Energy
eV
386.69
1
2
Intensity
d
Transmission
d
pulse counting
0.163636
3
0
1E+37
1E+37
1E+37
0
2202
79
4724
27.0476
36.9298
2751
27.6983
2775
27.7037
2749
27.709
2685
27.7144
2702
27.7197
2711
27.7251
2696
27.7304
2723
27.7357
2730
27.7411
2803
27.7464
2787
27.7518
2787
27.7571
2791
27.7624
2717
27.7678
2782
27.7731
2770
27.7785
2799
27.7838
2817
27.7892
2770
27.7945
2783
27.7998
2839
27.8052
2766
27.8105
2754
27.8159
2848
27.8212
2799
27.8266
2750
27.8319
2796
27.8372
2760
27.8426
2845
27.8479
2868
27.8533
2876
27.8586
2847
27.864
2821
27.8693
2839
27.8746
2828
27.88
2840
27.8853
2854
27.8907
2833
27.896
2817
27.9014
2810
27.9067
2953
27.912
2858
27.9174
2844
27.9227
2902
27.9281
2932
27.9334
2861
27.9387
2914
27.9441
2876
27.9494
2931
27.9548
2873
27.9601
2969
27.9655
2864
27.9708
2907
27.9761
2864
27.9815
3024
27.9868
2880
27.9922
2898
27.9975
2906
28.0029
2896
28.0082
2925
28.0135
2882
28.0189
2901
28.0242
2905
28.0296
2858
28.0349
2936
28.0403
2977
28.0456
2931
28.0509
2953
28.0563
2980
28.0616
2969
28.067
2946
28.0809
2998
28.0992
3034
28.1175
2967
28.1358
2972
28.1541
2906
28.1724
2960
28.1908
2992
28.2091
3004
28.2274
2960
28.2457
2951
28.264
3015
28.2823
3065
28.3006
2995
28.3189
3012
28.3373
2988
28.3556
2939
28.3739
2921
28.3922
2894
28.4105
3003
28.4288
2975
28.4471
2874
28.4654
2896
28.4838
2975
28.5021
3030
28.5204
3039
28.5387
3041
28.557
2997
28.5753
2988
28.5936
2990
28.6119
3008
28.6303
3058
28.6486
3025
28.6669
3115
28.6852
3026
28.7035
2981
28.7218
2921
28.7401
2982
28.7584
2986
28.7768
2936
28.7951
2900
28.8134
2849
28.8317
2917
28.85
2928
28.8683
2896
28.8866
2933
28.905
2850
28.9233
2852
28.9416
2912
28.9599
2975
28.9782
3011
28.9965
2919
29.0148
3012
29.0331
3018
29.0515
3024
29.0698
3000
29.0881
3080
29.1064
2993
29.1247
3034
29.143
2915
29.1613
2768
29.1796
2835
29.198
2775
29.2163
2696
29.2346
2697
29.2529
2587
29.2712
2558
29.2895
2513
29.3078
2519
29.3261
2533
29.3445
2544
29.3628
2570
29.3811
2546
29.3994
2534
29.4177
2484
29.436
2527
29.4543
2565
29.4726
2553
29.491
2632
29.5093
2590
29.5276
2619
29.5459
2677
29.5642
2643
29.5825
2660
29.6008
2649
29.6192
2563
29.6375
2556
29.6558
2636
29.6741
2592
29.6924
2606
29.7107
2657
29.729
2594
29.7473
2597
29.7657
2529
29.784
2597
29.8023
2635
29.8206
2685
29.8389
2674
29.8572
2619
29.8755
2608
29.8938
2732
29.9122
2619
29.9305
2599
29.9488
2630
29.9671
2594
29.9854
2586
30.0037
2564
30.022
2602
30.0403
2731
30.0587
2623
30.077
2648
30.0953
2666
30.1136
2670
30.1319
2695
30.1502
2659
30.1685
2575
30.1869
2616
30.2052
2645
30.2235
2649
30.2418
2638
30.2601
2697
30.2784
2654
30.2967
2631
30.315
2591
30.3334
2598
30.3517
2647
30.37
2690
30.3883
2700
30.4066
2624
30.4249
2638
30.4432
2680
30.4615
2671
30.4799
2601
30.4982
2627
30.5165
2655
30.5348
2637
30.5531
2667
30.5714
2572
30.5897
2601
30.608
2629
30.6264
2614
30.6447
2691
30.663
2648
30.6813
2638
30.6996
2655
30.7179
2654
30.7362
2611
30.7545
2583
30.7729
2633
30.7912
2653
30.8095
2697
30.8278
2732
30.8461
2685
30.8644
2651
30.8827
2711
30.9011
2652
30.9194
2668
30.9377
2670
30.956
2648
30.9743
2740
30.9926
2704
31.0109
2673
31.0292
2658
31.0476
2637
31.0659
2632
31.0842
2663
31.1025
2755
31.1208
2779
31.1391
2747
31.1574
2692
31.1757
2755
31.1941
2733
31.2124
2646
31.2307
2689
31.249
2634
31.2673
2578
31.2856
2682
31.3039
2690
31.3222
2679
31.3406
2713
31.3589
2683
31.3772
2658
31.3955
2704
31.4138
2717
31.4321
2720
31.4504
2766
31.4688
2798
31.4871
2761
31.5054
2656
31.5237
2668
31.542
2682
31.5603
2695
31.5786
2721
31.5969
2767
31.6153
2727
31.6336
2648
31.6519
2661
31.6702
2731
31.6885
2697
31.7068
2770
31.7251
2730
31.7434
2753
31.7618
2733
31.7801
2658
31.7984
2764
31.8167
2801
31.835
2735
31.8533
2740
31.8716
2769
31.8899
2705
31.9082
2653
31.9264
2654
31.9447
2783
31.9629
2709
31.9811
2689
31.9994
2660
32.0176
2697
32.0358
2781
32.054
2773
32.0723
2865
32.0905
2763
32.1087
2740
32.127
2780
32.1452
2684
32.1634
2743
32.1817
2798
32.1999
2796
32.2181
2829
32.2364
2792
32.2546
2767
32.2728
2753
32.291
2757
32.3093
2826
32.3275
2733
32.3457
2782
32.364
2765
32.3822
2843
32.4004
2820
32.4187
2770
32.4369
2799
32.4551
2801
32.4734
2810
32.4916
2797
32.5098
2829
32.528
2753
32.5463
2846
32.5645
2829
32.5827
2865
32.601
2804
32.6192
2859
32.6374
2837
32.6557
2817
32.6739
2825
32.6921
2835
32.7104
2712
32.7286
2830
32.7468
2814
32.7651
2708
32.7833
2777
32.8015
2814
32.8197
2818
32.838
2783
32.8562
2685
32.8744
2810
32.8927
2888
32.9109
2861
32.9291
2862
32.9474
2911
32.9656
2892
32.9838
2811
33.0021
2828
33.0203
2925
33.0385
2813
33.0568
2790
33.075
2917
33.0932
2928
33.1114
2850
33.1297
2865
33.1479
2853
33.1661
2731
33.1844
2844
33.2026
2779
33.2208
2797
33.2391
2786
33.2573
2850
33.2755
2932
33.2938
2924
33.312
2867
33.3302
2898
33.3484
2927
33.3667
2832
33.3849
2894
33.4031
2862
33.4214
2843
33.4396
2846
33.4578
2799
33.4761
2835
33.4943
2959
33.5125
2811
33.5308
2825
33.549
2805
33.5672
2809
33.5854
2888
33.6037
2864
33.6219
2888
33.6401
2916
33.6584
2883
33.6766
2895
33.6948
2927
33.7131
2864
33.7313
2808
33.7495
2838
33.7678
2848
33.786
2813
33.8042
2801
33.8225
2913
33.8407
2871
33.8589
2888
33.8771
2897
33.8954
2887
33.9136
2963
33.9318
2893
33.9501
2872
33.9683
2824
33.9865
2859
34.0048
2834
34.023
2844
34.0412
2801
34.0595
2799
34.0777
2782
34.0959
2781
34.1141
2771
34.1324
2819
34.1506
2916
34.1688
2910
34.1871
2920
34.2053
2887
34.2235
2875
34.2418
2914
34.26
2913
34.2782
2900
34.2965
2882
34.3147
2888
34.3329
2885
34.3512
2891
34.3694
2852
34.3876
2882
34.4058
2869
34.4241
2885
34.4423
2866
34.4605
2940
34.4788
2854
34.497
2905
34.5152
3030
34.5335
2970
34.5517
2951
34.5699
3005
34.5882
2920
34.6064
2844
34.6246
2981
34.6428
2890
34.6611
2934
34.6793
2963
34.6975
2934
34.7158
2976
34.734
2993
34.7522
2916
34.7705
2971
34.7887
2967
34.8069
2878
34.8252
2983
34.8434
2990
34.8616
2954
34.8798
2833
34.8981
3053
34.9163
2978
34.9345
2978
34.9528
3003
34.971
2981
34.9892
2983
35.0075
2882
35.0257
2936
35.0439
2979
35.0622
2970
35.0804
3051
35.0986
3209
35.1169
3120
35.1351
3028
35.1533
3053
35.1715
2967
35.1898
3043
35.208
3038
35.2262
3090
35.2445
3072
35.2627
2981
35.2809
3079
35.2992
2988
35.3174
2955
35.3356
2947
35.3539
3002
35.3721
3012
35.3903
3099
35.4085
3057
35.4268
3063
35.445
3065
35.4632
3072
35.4815
3034
35.4997
3081
35.5179
3077
35.5362
3051
35.5544
3093
35.5726
3071
35.5909
3040
35.6091
3071
35.6273
3163
35.6455
3081
35.6638
3099
35.682
3037
35.7002
3018
35.7185
3071
35.7367
3072
35.7549
3104
35.7732
3014
35.7914
3023
35.8096
3083
35.8279
3107
35.8461
3090
35.8643
3031
35.8826
3097
35.9008
3109
35.919
3028
35.9372
3165
35.9449
3126
35.9516
3228
35.9583
3165
35.965
3146
35.9717
3237
35.9784
3192
35.9851
3163
35.9918
3181
35.9985
3145
36.0052
3189
36.0119
3223
36.0186
3211
36.0253
3191
36.032
3158
36.0387
3189
36.0454
3169
36.0521
3124
36.0588
3158
36.0655
3090
36.0722
3153
36.0789
3141
36.0856
3195
36.0923
3221
36.099
3192
36.1057
3080
36.1124
3127
36.1191
3118
36.1258
3186
36.1325
3126
36.1392
3081
36.1459
3161
36.1526
3165
36.1593
3105
36.166
3123
36.1727
3193
36.1794
3134
36.1861
3229
36.1928
3210
36.1995
3108
36.2062
3229
36.2129
3238
36.2196
3214
36.2263
3257
36.233
3235
36.2397
3236
36.2464
3132
36.2531
3260
36.2598
3298
36.2665
3229
36.2732
3182
36.2799
3114
36.2866
3238
36.2933
3179
36.3
3037
36.3067
3021
36.3134
2811
36.3201
2729
36.3268
2668
36.3335
2556
36.3402
2523
36.3469
2564
36.3536
2742
36.3603
3032
36.367
3628
36.3737
4209
36.3804
4281
36.3871
4205
36.3938
3975
36.4005
3677
36.4072
3156
36.4139
2716
36.4206
2387
36.4273
2349
36.434
2304
36.4407
2263
36.4474
2255
36.4541
2314
36.4608
2245
36.4675
2199
36.4742
2243
36.4809
2380
36.4876
2285
36.4943
2266
36.501
2286
36.5077
2344
36.5144
2263
36.5211
2380
36.5278
2410
36.5345
2347
36.5412
2275
36.5479
2308
36.5546
2308
36.5613
2353
36.568
2377
36.5747
2356
36.5814
2365
36.5881
2376
36.5948
2358
36.6015
2431
36.6082
2324
36.6149
2354
36.6216
2335
36.6283
2488
36.635
2441
36.6417
2435
36.6484
2394
36.6551
2349
36.6618
2387
36.6685
2439
36.6752
2381
36.6819
2413
36.6886
2428
36.6953
2447
36.702
2489
36.7087
2434
36.7154
2467
36.7221
2428
36.7288
2433
36.7355
2416
36.7422
2436
36.7489
2461
36.7556
2404
36.7623
2447
36.769
2563
36.7757
2478
36.7824
2424
36.7891
2467
36.7958
2464
36.8025
2452
36.8092
2427
36.8159
2514
36.8226
2487
36.8293
2488
36.836
2473
36.8427
2484
36.8494
2485
36.8561
2476
36.8628
2407
36.8695
2550
36.8762
2486
36.8829
2465
36.8896
2499
36.8963
2539
36.903
2528
36.9097
2598
36.9164
2526
36.9231
2515
36.9298
2509
36.9117
2556
36.8827
2552
36.8537
2572
36.8248
2580
36.7958
2651
36.7668
2634
36.7378
2609
36.7088
2588
36.6798
2649
36.6508
2605
36.6218
2625
36.5929
2660
36.5639
2597
36.5349
2592
36.5059
2485
36.4769
2600
36.4479
2685
36.4189
2718
36.3899
2609
36.3609
2698
36.332
2681
36.303
2659
36.274
2657
36.245
2674
36.216
2681
36.187
2683
36.158
2717
36.129
2731
36.1001
2601
36.0711
2668
36.0421
2675
36.0131
2637
35.9841
2698
35.9551
2722
35.9261
2673
35.8971
2677
35.8681
2636
35.8392
2588
35.8102
2631
35.7812
2651
35.7522
2636
35.7232
2640
35.6942
2549
35.6652
2564
35.6362
2545
35.6073
2685
35.5783
2736
35.5493
2947
35.5203
3195
35.4913
3197
35.4623
3172
35.4333
3002
35.4043
2967
35.3754
2753
35.3464
2593
35.3174
2534
35.2884
2575
35.2594
2583
35.2304
2595
35.2014
2522
35.1724
2582
35.1434
2565
35.1145
2611
35.0855
2630
35.0565
2617
35.0275
2644
34.9985
2664
34.9695
2647
34.9405
2602
34.9115
2645
34.8826
2700
34.8536
2720
34.8246
2684
34.7956
2612
34.7666
2645
34.7376
2676
34.7086
2598
34.6796
2621
34.6506
2729
34.6217
2609
34.5927
2606
34.5637
2660
34.5347
2596
34.5057
2653
34.4767
2612
34.4477
2607
34.4187
2585
34.3898
2567
34.3608
2608
34.3318
2576
34.3028
2613
34.2738
2690
34.2448
2815
34.2158
2946
34.1868
2937
34.1578
2978
34.1289
3043
34.0999
2890
34.0709
2888
34.0419
2849
34.0129
2643
33.9839
2596
33.9549
2465
33.9259
2346
33.897
2317
33.868
2347
33.839
2267
33.81
2217
33.781
2310
33.752
2366
33.723
2506
33.694
2624
33.6651
2817
33.6361
2906
33.6071
2922
33.5781
2878
33.5491
2747
33.5201
2570
33.4911
2391
33.4621
2292
33.4331
2163
33.4042
2052
33.3752
2052
33.3462
1896
33.3172
1932
33.2882
2003
33.2592
1913
33.2302
1915
33.2012
1897
33.1723
1918
33.1433
1983
33.1143
1943
33.0853
1930
33.0563
1986
33.0273
1969
32.9983
1943
32.9693
1914
32.9403
1928
32.9114
2019
32.8824
2138
32.8534
2092
32.8244
2031
32.7954
2079
32.7664
2010
32.7374
1964
32.7084
1936
32.6795
1871
32.6505
1825
32.6215
1797
32.5925
1646
32.5635
1702
32.5345
1582
32.5055
1541
32.4765
1352
32.4475
1390
32.4186
1345
32.3896
1293
32.3606
1255
32.3316
1395
32.3026
1567
32.2736
1911
32.2446
2714
32.2156
3994
32.1867
4724
32.1577
4603
32.1287
4193
32.0997
3783
32.0707
3168
32.0417
2334
32.0127
1429
31.9837
1035
31.9547
947
31.9258
917
31.8968
911
31.8678
895
31.8388
888
31.8098
914
31.7808
995
31.7518
918
31.7228
881
31.6939
885
31.6649
900
31.6359
926
31.6069
945
31.5779
920
31.5489
929
31.5199
931
31.4909
893
31.462
890
31.433
911
31.404
979
31.375
880
31.346
963
31.317
930
31.288
949
31.259
947
31.23
948
31.2011
951
31.1721
973
31.1431
998
31.1141
929
31.1243
884
31.1476
872
31.1709
874
31.1942
916
31.2174
925
31.2407
961
31.264
951
31.2873
900
31.3106
940
31.3339
942
31.3571
958
31.3804
959
31.4037
965
31.427
962
31.4503
1008
31.4736
1011
31.4968
1037
31.5201
1007
31.5434
1034
31.5667
1048
31.59
1008
31.6133
1029
31.6365
982
31.6598
1010
31.6831
1009
31.7064
954
31.7297
960
31.753
974
31.7762
991
31.7995
998
31.8228
1004
31.8461
1003
31.8694
1003
31.8927
1024
31.9159
1004
31.9392
981
31.9625
940
31.9858
1015
32.0091
958
32.0324
1002
32.0556
968
32.0789
959
32.1022
973
32.1255
1076
32.1488
1050
32.1721
1060
32.1953
1047
32.2186
1047
32.2419
1095
32.2652
1067
32.2885
1063
32.3118
1024
32.335
1048
32.3583
1080
32.3816
1081
32.4049
1071
32.4282
981
32.4515
1033
32.4747
1030
32.498
1069
32.5213
990
32.5446
1028
32.5679
1044
32.5912
1040
32.6144
1066
32.6377
1072
32.661
1091
32.6843
1091
32.7076
1062
32.7309
1022
32.7541
967
32.7774
1115
32.8007
1032
32.824
1051
32.8473
1062
32.8706
1060
32.8938
1032
32.9171
1044
32.9404
1121
32.9637
1141
32.987
1187
33.0103
1181
33.0336
1129
33.0568
1089
33.0801
1079
33.1034
1141
33.1267
1154
33.15
1129
33.1732
1086
33.1965
1131
33.2198
1056
33.2431
1069
33.2664
1159
33.2729
1164
33.2261
1169
33.1793
1212
33.1325
1154
33.0857
1131
33.0389
1115
32.9921
1121
32.9454
1160
32.8986
1103
32.8518
1158
32.805
1136
32.7582
1108
32.7114
1139
32.6646
1135
32.6179
1128
32.5711
1128
32.5243
1182
32.4775
1110
32.4307
1132
32.3839
1171
32.3371
1123
32.2904
1160
32.2436
1171
32.1968
1172
32.15
1190
32.1032
1131
32.0564
1152
32.0096
1177
31.9629
1169
31.9161
1160
31.8693
1144
31.8225
1128
31.7757
1182
31.7289
1145
31.6821
1174
31.6354
1235
31.5886
1199
31.5418
1252
31.495
1229
31.4482
1267
31.4014
1266
31.3546
1219
31.3079
1281
31.2611
1234
31.2143
1279
31.1675
1288
31.1207
1243
31.0739
1246
31.0272
1253
30.9804
1202
30.9336
1211
30.8868
1202
30.84
1174
30.7932
1132
30.7464
1138
30.6997
1035
30.6529
1032
30.6061
1011
30.5593
1000
30.5125
907
30.4657
900
30.4189
897
30.3722
867
30.3254
894
30.2786
934
30.2318
1259
30.185
1746
30.1382
1838
30.0914
1910
30.0447
2358
29.9979
2656
29.9511
2304
29.9043
1887
29.8575
1591
29.8107
1320
29.7639
921
29.7172
608
29.6704
389
29.6236
325
29.5768
302
29.53
312
29.4832
319
29.4364
297
29.3897
287
29.3429
268
29.2961
289
29.2493
296
29.2025
292
29.1557
265
29.1089
264
29.0622
261
29.0154
265
28.9686
252
28.9218
217
28.875
252
28.8282
293
28.7815
289
28.7347
319
28.6879
290
28.6411
330
28.5943
313
28.5475
301
28.5007
289
28.454
277
28.4072
275
28.3604
240
28.3136
234
28.2668
190
28.22
195
28.1732
184
28.1265
186
28.0797
204
28.0329
179
27.9861
182
27.9393
209
27.8925
190
27.8457
179
27.799
191
27.7522
191
27.7054
184
27.6586
190
27.6118
166
27.565
200
27.5182
180
27.4715
197
27.4247
187
27.3779
220
27.3311
221
27.2843
205
27.2375
231
27.1907
210
27.144
204
27.0972
232
27.0504
200
27.0476
236
27.0476
181
27.0476
179
27.0476
174
27.0476
167
27.0476
166
27.0476
178
27.0476
158
27.0476
148
27.0476
154
27.0476
144
27.0476
137
27.0476
148
27.0476
185
27.0476
228
27.0476
224
27.0476
265
27.0476
313
27.0476
263
27.0476
203
27.0476
200
27.0476
123
27.0476
79
27.0476
Wide/5
Not Specified
2005
9
14
14
57
1
0
4
   Lens Mode:Hybrid   Resolution:Pass energy 160   Iris(Aperture):slot(Slot)
   Anode:Mono(Al (Mono))(150 W)   Step(meV): 1000.0   Dwell(ms): 300        Sweeps: 5        Acquisition Time(s): 902     
   Acquired On :05/09/14 14:57:01   C/N :On
   
XPS
16384
16384
0
Mono(Al (Mono))
1486.69
150
1E+37
1E+37
6000
6000
1E+37
1E+37
FAT
160
1E+37
-4.455
0
1E+37
1E+37
1E+37
1E+37
Wide
None
-1
Kinetic Energy
eV
886.69
1
2
Intensity
d
Transmission
d
pulse counting
0.3
5
0
1E+37
1E+37
1E+37
0
1202
254
14884
27.0476
36.9298
10294
35.9372
10418
35.9449
10501
35.9516
10417
35.9583
10369
35.965
10403
35.9717
10414
35.9784
10587
35.9851
10433
35.9918
10613
35.9985
10636
36.0052
10495
36.0119
10503
36.0186
10533
36.0253
10600
36.032
10626
36.0387
10652
36.0454
10622
36.0521
10748
36.0588
10590
36.0655
10589
36.0722
10686
36.0789
10821
36.0856
10800
36.0923
10882
36.099
10812
36.1057
10739
36.1124
10609
36.1191
10677
36.1258
10631
36.1325
10586
36.1392
10476
36.1459
10444
36.1526
10562
36.1593
10533
36.166
10273
36.1727
10281
36.1794
10475
36.1861
10493
36.1928
10570
36.1995
10612
36.2062
10614
36.2129
10790
36.2196
10859
36.2263
10867
36.233
10721
36.2397
10827
36.2464
10856
36.2531
10642
36.2598
10729
36.2665
10805
36.2732
10758
36.2799
10776
36.2866
10611
36.2933
10263
36.3
9971
36.3067
9627
36.3134
9247
36.3201
9038
36.3268
8848
36.3335
8626
36.3402
8717
36.3469
8779
36.3536
9360
36.3603
10474
36.367
12721
36.3737
14431
36.3804
14705
36.3871
14236
36.3938
13152
36.4005
12123
36.4072
10498
36.4139
9058
36.4206
8082
36.4273
7823
36.434
7698
36.4407
7781
36.4474
7742
36.4541
7772
36.4608
7772
36.4675
7786
36.4742
7940
36.4809
7949
36.4876
7696
36.4943
7651
36.501
7778
36.5077
7882
36.5144
7664
36.5211
7706
36.5278
7824
36.5345
7761
36.5412
7696
36.5479
7806
36.5546
7805
36.5613
7935
36.568
7852
36.5747
7939
36.5814
7944
36.5881
7922
36.5948
7911
36.6015
7821
36.6082
7832
36.6149
8054
36.6216
8055
36.6283
7976
36.635
7885
36.6417
8152
36.6484
8147
36.6551
8116
36.6618
8065
36.6685
7963
36.6752
8009
36.6819
8076
36.6886
8077
36.6953
8057
36.702
8016
36.7087
8086
36.7154
8094
36.7221
8163
36.7288
8163
36.7355
8036
36.7422
8135
36.7489
8176
36.7556
8222
36.7623
8158
36.769
8124
36.7757
8285
36.7824
8264
36.7891
8340
36.7958
8234
36.8025
8279
36.8092
8426
36.8159
8398
36.8226
8329
36.8293
8475
36.836
8384
36.8427
8431
36.8494
8458
36.8561
8388
36.8628
8450
36.8695
8515
36.8762
8361
36.8829
8314
36.8896
8504
36.8963
8378
36.903
8686
36.9097
8567
36.9164
8451
36.9231
8454
36.9298
8567
36.9117
8619
36.8827
8637
36.8537
8590
36.8248
8642
36.7958
8687
36.7668
8672
36.7378
8812
36.7088
8642
36.6798
8610
36.6508
8746
36.6218
8693
36.5929
8790
36.5639
8902
36.5349
8734
36.5059
8724
36.4769
8797
36.4479
8730
36.4189
8955
36.3899
8818
36.3609
8818
36.332
8729
36.303
8820
36.274
8950
36.245
8869
36.216
8961
36.187
9032
36.158
8997
36.129
8990
36.1001
9006
36.0711
8958
36.0421
8929
36.0131
8941
35.9841
8768
35.9551
8783
35.9261
8763
35.8971
8776
35.8681
8847
35.8392
8758
35.8102
8682
35.7812
8748
35.7522
8578
35.7232
8648
35.6942
8618
35.6652
8573
35.6362
8836
35.6073
8763
35.5783
9274
35.5493
10053
35.5203
10693
35.4913
10674
35.4623
10412
35.4333
10067
35.4043
9806
35.3754
9304
35.3464
8871
35.3174
8667
35.2884
8652
35.2594
8500
35.2304
8579
35.2014
8667
35.1724
8642
35.1434
8759
35.1145
8815
35.0855
8640
35.0565
8697
35.0275
8862
34.9985
8623
34.9695
8899
34.9405
8756
34.9115
8908
34.8826
8951
34.8536
8840
34.8246
8798
34.7956
8788
34.7666
8780
34.7376
8851
34.7086
8863
34.6796
8735
34.6506
8956
34.6217
8976
34.5927
8930
34.5637
8884
34.5347
8737
34.5057
8719
34.4767
8842
34.4477
8684
34.4187
8683
34.3898
8723
34.3608
8940
34.3318
9002
34.3028
9003
34.2738
9132
34.2448
9455
34.2158
9633
34.1868
9985
34.1578
10053
34.1289
10171
34.0999
9985
34.0709
9614
34.0419
9205
34.0129
8973
33.9839
8714
33.9549
8281
33.9259
7993
33.897
7965
33.868
7665
33.839
7626
33.81
7554
33.781
7745
33.752
7893
33.723
8457
33.694
8902
33.6651
9502
33.6361
9739
33.6071
9778
33.5781
9653
33.5491
9203
33.5201
8667
33.4911
8168
33.4621
7640
33.4331
7278
33.4042
6972
33.3752
6705
33.3462
6576
33.3172
6391
33.2882
6256
33.2592
6342
33.2302
6533
33.2012
6409
33.1723
6320
33.1433
6388
33.1143
6404
33.0853
6362
33.0563
6484
33.0273
6514
32.9983
6541
32.9693
6556
32.9403
6638
32.9114
6725
32.8824
6707
32.8534
6712
32.8244
6760
32.7954
6728
32.7664
6612
32.7374
6692
32.7084
6423
32.6795
6375
32.6505
6280
32.6215
5958
32.5925
5620
32.5635
5515
32.5345
5221
32.5055
5037
32.4765
4753
32.4475
4503
32.4186
4398
32.3896
4297
32.3606
4395
32.3316
4729
32.3026
5445
32.2736
6701
32.2446
9354
32.2156
12998
32.1867
14884
32.1577
14545
32.1287
13741
32.0997
12491
32.0707
10345
32.0417
7480
32.0127
4622
31.9837
3454
31.9547
3141
31.9258
3100
31.8968
3097
31.8678
3188
31.8388
3196
31.8098
3156
31.7808
3088
31.7518
3214
31.7228
3282
31.6939
3180
31.6649
3209
31.6359
3119
31.6069
3102
31.5779
3081
31.5489
3141
31.5199
3196
31.4909
3134
31.462
3048
31.433
3148
31.404
3093
31.375
3094
31.346
3127
31.317
3166
31.288
3192
31.259
3269
31.23
3222
31.2011
3205
31.1721
3227
31.1431
3168
31.1141
3217
31.1243
3202
31.1476
3245
31.1709
3200
31.1942
3061
31.2174
3272
31.2407
3235
31.264
3165
31.2873
3258
31.3106
3251
31.3339
3256
31.3571
3211
31.3804
3325
31.4037
3345
31.427
3342
31.4503
3382
31.4736
3458
31.4968
3483
31.5201
3414
31.5434
3494
31.5667
3525
31.59
3403
31.6133
3385
31.6365
3531
31.6598
3406
31.6831
3374
31.7064
3335
31.7297
3318
31.753
3357
31.7762
3388
31.7995
3234
31.8228
3224
31.8461
3312
31.8694
3452
31.8927
3437
31.9159
3407
31.9392
3439
31.9625
3398
31.9858
3391
32.0091
3416
32.0324
3356
32.0556
3464
32.0789
3442
32.1022
3296
32.1255
3438
32.1488
3521
32.1721
3524
32.1953
3575
32.2186
3579
32.2419
3577
32.2652
3659
32.2885
3572
32.3118
3523
32.335
3488
32.3583
3570
32.3816
3575
32.4049
3663
32.4282
3546
32.4515
3527
32.4747
3596
32.498
3487
32.5213
3545
32.5446
3659
32.5679
3646
32.5912
3552
32.6144
3525
32.6377
3658
32.661
3642
32.6843
3554
32.7076
3631
32.7309
3618
32.7541
3615
32.7774
3581
32.8007
3594
32.824
3741
32.8473
3734
32.8706
3666
32.8938
3578
32.9171
3701
32.9404
3958
32.9637
3958
32.987
4043
33.0103
3872
33.0336
3956
33.0568
3973
33.0801
3894
33.1034
3896
33.1267
3795
33.15
3750
33.1732
3765
33.1965
3694
33.2198
3751
33.2431
3865
33.2664
3797
33.2729
3911
33.2261
3880
33.1793
3930
33.1325
3910
33.0857
3930
33.0389
3977
32.9921
3923
32.9454
3819
32.8986
3876
32.8518
3834
32.805
3819
32.7582
3899
32.7114
3986
32.6646
3994
32.6179
3884
32.5711
3877
32.5243
3935
32.4775
3968
32.4307
3911
32.3839
3877
32.3371
3840
32.2904
3995
32.2436
3952
32.1968
3997
32.15
3928
32.1032
3995
32.0564
3847
32.0096
4061
31.9629
4010
31.9161
4035
31.8693
3890
31.8225
3956
31.7757
4093
31.7289
4105
31.6821
4129
31.6354
4073
31.5886
4160
31.5418
4135
31.495
4214
31.4482
4202
31.4014
4208
31.3546
4233
31.3079
4359
31.2611
4252
31.2143
4343
31.1675
4340
31.1207
4317
31.0739
4266
31.0272
4297
30.9804
4260
30.9336
4143
30.8868
4073
30.84
4129
30.7932
3968
30.7464
3789
30.6997
3673
30.6529
3543
30.6061
3358
30.5593
3249
30.5125
3152
30.4657
3058
30.4189
2975
30.3722
2958
30.3254
3042
30.2786
3542
30.2318
4693
30.185
5964
30.1382
6153
30.0914
6795
30.0447
8387
29.9979
8756
29.9511
7527
29.9043
6230
29.8575
5244
29.8107
4255
29.7639
2928
29.7172
1812
29.6704
1360
29.6236
1186
29.5768
1192
29.53
1163
29.4832
1136
29.4364
1065
29.3897
1072
29.3429
1013
29.2961
1024
29.2493
1007
29.2025
948
29.1557
920
29.1089
950
29.0622
931
29.0154
923
28.9686
870
28.9218
989
28.875
978
28.8282
1000
28.7815
1067
28.7347
1129
28.6879
1159
28.6411
1191
28.5943
1152
28.5475
1049
28.5007
985
28.454
954
28.4072
853
28.3604
785
28.3136
800
28.2668
726
28.22
703
28.1732
728
28.1265
705
28.0797
682
28.0329
683
27.9861
686
27.9393
647
27.8925
640
27.8457
608
27.799
610
27.7522
637
27.7054
636
27.6586
650
27.6118
654
27.565
617
27.5182
624
27.4715
640
27.4247
658
27.3779
732
27.3311
748
27.2843
803
27.2375
803
27.1907
771
27.144
755
27.0972
760
27.0504
684
27.0476
639
27.0476
662
27.0476
582
27.0476
564
27.0476
548
27.0476
555
27.0476
561
27.0476
534
27.0476
503
27.0476
462
27.0476
490
27.0476
489
27.0476
515
27.0476
704
27.0476
788
27.0476
881
27.0476
1020
27.0476
1016
27.0476
922
27.0476
760
27.0476
537
27.0476
366
27.0476
254
27.0476
O 1s/6
Not Specified
2005
9
14
15
13
56
0
4
   Lens Mode:Hybrid   Resolution:Pass energy 10    Iris(Aperture):slot(Slot)
   Anode:Mono(Al (Mono))(150 W)   Step(meV): 100.0    Dwell(ms): 261        Sweeps: 10       Acquisition Time(s): 603     
   Acquired On :05/09/14 15:13:56   C/N :On
   
XPS
16384
16384
0
Mono(Al (Mono))
1486.69
150
1E+37
1E+37
6000
6000
1E+37
1E+37
FAT
10
1E+37
-4.455
0
1E+37
1E+37
1E+37
1E+37
O
1s
-1
Kinetic Energy
eV
948.69
0.1
2
Intensity
d
Transmission
d
pulse counting
0.26087
10
0
1E+37
1E+37
1E+37
0
462
40
133
0.279953
0.280338
75
0.279953
74
0.279955
73
0.279957
65
0.279958
63
0.27996
62
0.279962
50
0.279963
62
0.279965
56
0.279967
65
0.279968
64
0.27997
70
0.279972
73
0.279973
77
0.279975
64
0.279977
62
0.279978
58
0.27998
64
0.279982
62
0.279983
55
0.279985
54
0.279987
58
0.279988
64
0.27999
52
0.279992
66
0.279994
67
0.279995
53
0.279997
58
0.279999
55
0.28
57
0.280002
60
0.280004
76
0.280005
44
0.280007
74
0.280009
57
0.28001
73
0.280012
66
0.280014
72
0.280015
65
0.280017
56
0.280019
71
0.28002
81
0.280022
83
0.280024
73
0.280025
103
0.280027
85
0.280029
71
0.28003
100
0.280032
81
0.280034
79
0.280035
93
0.280037
84
0.280039
89
0.28004
107
0.280042
111
0.280044
98
0.280045
107
0.280047
97
0.280049
111
0.28005
105
0.280052
111
0.280054
131
0.280055
99
0.280057
113
0.280059
133
0.28006
122
0.280062
127
0.280064
117
0.280065
115
0.280067
104
0.280069
107
0.28007
117
0.280072
114
0.280074
117
0.280075
87
0.280077
103
0.280079
114
0.28008
99
0.280082
119
0.280084
107
0.280085
112
0.280087
81
0.280089
93
0.28009
79
0.280092
102
0.280094
74
0.280095
83
0.280097
73
0.280099
72
0.2801
72
0.280102
72
0.280104
66
0.280106
79
0.280107
72
0.280109
74
0.280111
63
0.280112
74
0.280114
60
0.280116
72
0.280117
69
0.280119
69
0.280121
65
0.280122
61
0.280124
65
0.280126
55
0.280127
75
0.280129
60
0.280131
66
0.280132
62
0.280134
69
0.280136
57
0.280137
53
0.280139
49
0.280141
47
0.280142
56
0.280144
64
0.280146
59
0.280147
63
0.280149
63
0.280151
70
0.280152
66
0.280154
57
0.280156
63
0.280157
51
0.280159
59
0.280161
73
0.280162
59
0.280164
55
0.280166
59
0.280167
49
0.280169
56
0.280171
59
0.280172
66
0.280174
74
0.280176
61
0.280177
49
0.280179
62
0.280181
47
0.280182
57
0.280184
58
0.280186
68
0.280187
66
0.280189
61
0.280191
63
0.280192
65
0.280194
61
0.280196
61
0.280197
67
0.280199
46
0.280201
60
0.280202
52
0.280204
51
0.280206
73
0.280208
67
0.280209
52
0.280211
50
0.280213
60
0.280214
58
0.280216
58
0.280218
60
0.280219
65
0.280221
53
0.280223
55
0.280224
74
0.280226
57
0.280228
55
0.280229
63
0.280231
68
0.280233
66
0.280234
65
0.280236
73
0.280238
61
0.280239
60
0.280241
64
0.280243
58
0.280244
50
0.280246
56
0.280248
47
0.280249
49
0.280251
67
0.280253
57
0.280254
55
0.280256
69
0.280258
61
0.280259
65
0.280261
55
0.280263
63
0.280264
66
0.280266
60
0.280268
61
0.280269
73
0.280271
68
0.280273
63
0.280274
45
0.280276
80
0.280278
68
0.280279
57
0.280281
51
0.280283
56
0.280284
56
0.280286
40
0.280288
63
0.280289
53
0.280291
67
0.280293
47
0.280294
69
0.280296
77
0.280298
68
0.280299
62
0.280301
65
0.280303
57
0.280304
61
0.280306
56
0.280308
60
0.280309
64
0.280311
49
0.280313
54
0.280315
64
0.280316
61
0.280318
69
0.28032
63
0.280321
63
0.280323
57
0.280325
66
0.280326
69
0.280328
58
0.28033
61
0.280331
68
0.280333
68
0.280335
44
0.280336
52
0.280338
N 1s/7
Not Specified
2005
9
14
15
13
56
0
4
   Lens Mode:Hybrid   Resolution:Pass energy 10    Iris(Aperture):slot(Slot)
   Anode:Mono(Al (Mono))(150 W)   Step(meV): 100.0    Dwell(ms): 286        Sweeps: 10       Acquisition Time(s): 603     
   Acquired On :05/09/14 15:13:56   C/N :On
   
XPS
16384
16384
0
Mono(Al (Mono))
1486.69
150
1E+37
1E+37
6000
6000
1E+37
1E+37
FAT
10
1E+37
-4.455
0
1E+37
1E+37
1E+37
1E+37
N
1s
-1
Kinetic Energy
eV
1076.69
0.1
2
Intensity
d
Transmission
d
pulse counting
0.285714
10
0
1E+37
1E+37
1E+37
0
422
48
97
0.284683
0.286339
73
0.284683
66
0.284691
63
0.284699
70
0.284707
67
0.284715
71
0.284723
62
0.284731
67
0.284738
66
0.284746
65
0.284754
66
0.284762
64
0.28477
61
0.284778
65
0.284786
52
0.284794
73
0.284802
58
0.284809
69
0.284817
80
0.284825
70
0.284833
72
0.284841
69
0.284849
62
0.284857
62
0.284865
69
0.284872
73
0.28488
69
0.284888
76
0.284896
56
0.284904
65
0.284912
65
0.28492
75
0.284928
75
0.284936
65
0.284943
57
0.284951
59
0.284959
79
0.284967
75
0.284975
60
0.284983
72
0.284991
65
0.284999
62
0.285006
70
0.285014
77
0.285022
61
0.28503
50
0.285038
63
0.285046
59
0.285054
70
0.285062
62
0.28507
59
0.285077
62
0.285085
50
0.285093
58
0.285101
59
0.285109
56
0.285117
66
0.285125
54
0.285133
65
0.285141
55
0.285148
76
0.285156
74
0.285164
66
0.285172
76
0.28518
57
0.285188
75
0.285196
70
0.285204
54
0.285211
64
0.285219
57
0.285227
87
0.285235
69
0.285243
61
0.285251
77
0.285259
65
0.285267
71
0.285275
60
0.285282
57
0.28529
63
0.285298
67
0.285306
60
0.285314
76
0.285322
67
0.28533
63
0.285338
63
0.285345
78
0.285353
73
0.285361
75
0.285369
66
0.285377
72
0.285385
65
0.285393
70
0.285401
80
0.285409
74
0.285416
85
0.285424
65
0.285432
85
0.28544
85
0.285448
80
0.285456
86
0.285464
61
0.285472
91
0.285479
97
0.285487
89
0.285495
82
0.285503
66
0.285511
66
0.285519
86
0.285527
66
0.285535
94
0.285543
81
0.28555
80
0.285558
73
0.285566
76
0.285574
88
0.285582
74
0.28559
81
0.285598
64
0.285606
89
0.285614
77
0.285621
80
0.285629
58
0.285637
93
0.285645
66
0.285653
73
0.285661
75
0.285669
73
0.285677
56
0.285684
69
0.285692
65
0.2857
64
0.285708
72
0.285716
64
0.285724
76
0.285732
58
0.28574
50
0.285748
59
0.285755
72
0.285763
60
0.285771
64
0.285779
78
0.285787
48
0.285795
54
0.285803
65
0.285811
62
0.285818
62
0.285826
51
0.285834
62
0.285842
48
0.28585
78
0.285858
69
0.285866
50
0.285874
60
0.285882
56
0.285889
76
0.285897
65
0.285905
53
0.285913
66
0.285921
60
0.285929
65
0.285937
80
0.285945
74
0.285952
56
0.28596
64
0.285968
74
0.285976
71
0.285984
53
0.285992
68
0.286
65
0.286008
57
0.286016
65
0.286023
61
0.286031
59
0.286039
70
0.286047
65
0.286055
58
0.286063
69
0.286071
67
0.286079
54
0.286086
60
0.286094
55
0.286102
67
0.28611
60
0.286118
59
0.286126
62
0.286134
69
0.286142
60
0.28615
57
0.286157
50
0.286165
60
0.286173
64
0.286181
68
0.286189
73
0.286197
64
0.286205
69
0.286213
61
0.286221
61
0.286228
68
0.286236
66
0.286244
53
0.286252
64
0.28626
58
0.286268
80
0.286276
69
0.286284
65
0.286291
56
0.286299
71
0.286307
75
0.286315
63
0.286323
62
0.286331
70
0.286339
C 1s/8
Not Specified
2005
9
14
15
13
56
0
4
   Lens Mode:Hybrid   Resolution:Pass energy 10    Iris(Aperture):slot(Slot)
   Anode:Mono(Al (Mono))(150 W)   Step(meV): 100.0    Dwell(ms): 261        Sweeps: 10       Acquisition Time(s): 603     
   Acquired On :05/09/14 15:13:56   C/N :On
   
XPS
16384
16384
0
Mono(Al (Mono))
1486.69
150
1E+37
1E+37
6000
6000
1E+37
1E+37
FAT
10
1E+37
-4.455
0
1E+37
1E+37
1E+37
1E+37
C
1s
-1
Kinetic Energy
eV
1193.69
0.1
2
Intensity
d
Transmission
d
pulse counting
0.26087
10
0
1E+37
1E+37
1E+37
0
462
13
123
0.293907
0.29572
30
0.293907
32
0.293915
32
0.293922
31
0.29393
39
0.293938
23
0.293946
37
0.293954
30
0.293962
35
0.29397
37
0.293978
37
0.293985
35
0.293993
34
0.294001
39
0.294009
42
0.294017
29
0.294025
23
0.294033
34
0.294041
34
0.294049
35
0.294056
34
0.294064
31
0.294072
38
0.29408
31
0.294088
28
0.294096
44
0.294104
31
0.294112
45
0.294119
39
0.294127
25
0.294135
31
0.294143
35
0.294151
23
0.294159
31
0.294167
36
0.294175
32
0.294183
38
0.29419
23
0.294198
29
0.294206
40
0.294214
28
0.294222
35
0.29423
42
0.294238
36
0.294246
40
0.294253
37
0.294261
38
0.294269
50
0.294277
38
0.294285
40
0.294293
43
0.294301
35
0.294309
44
0.294317
41
0.294324
57
0.294332
43
0.29434
44
0.294348
64
0.294356
54
0.294364
43
0.294372
47
0.29438
48
0.294388
65
0.294395
69
0.294403
69
0.294411
56
0.294419
59
0.294427
71
0.294435
69
0.294443
82
0.294451
86
0.294458
74
0.294466
85
0.294474
90
0.294482
99
0.29449
92
0.294498
95
0.294506
105
0.294514
101
0.294522
105
0.294529
101
0.294537
123
0.294545
121
0.294553
112
0.294561
111
0.294569
101
0.294577
99
0.294585
95
0.294592
112
0.2946
87
0.294608
104
0.294616
100
0.294624
99
0.294632
99
0.29464
74
0.294648
94
0.294656
94
0.294663
89
0.294671
79
0.294679
67
0.294687
68
0.294695
61
0.294703
71
0.294711
84
0.294719
63
0.294726
50
0.294734
66
0.294742
65
0.29475
58
0.294758
61
0.294766
42
0.294774
46
0.294782
45
0.29479
52
0.294797
28
0.294805
32
0.294813
39
0.294821
33
0.294829
30
0.294837
31
0.294845
25
0.294853
25
0.294861
28
0.294868
26
0.294876
34
0.294884
31
0.294892
31
0.2949
31
0.294908
20
0.294916
36
0.294924
33
0.294931
36
0.294939
27
0.294947
26
0.294955
28
0.294963
31
0.294971
35
0.294979
40
0.294987
31
0.294995
36
0.295002
29
0.29501
28
0.295018
31
0.295026
29
0.295034
18
0.295042
33
0.29505
28
0.295058
35
0.295065
24
0.295073
23
0.295081
31
0.295089
32
0.295097
23
0.295105
32
0.295113
30
0.295121
24
0.295129
34
0.295136
28
0.295144
21
0.295152
28
0.29516
29
0.295168
45
0.295176
37
0.295184
27
0.295192
38
0.295199
23
0.295207
29
0.295215
27
0.295223
30
0.295231
36
0.295239
32
0.295247
26
0.295255
21
0.295263
30
0.29527
24
0.295278
20
0.295286
29
0.295294
28
0.295302
27
0.29531
34
0.295318
13
0.295326
26
0.295334
27
0.295341
25
0.295349
26
0.295357
23
0.295365
32
0.295373
33
0.295381
29
0.295389
23
0.295397
26
0.295404
27
0.295412
30
0.29542
33
0.295428
27
0.295436
27
0.295444
27
0.295452
23
0.29546
30
0.295468
26
0.295475
30
0.295483
32
0.295491
29
0.295499
27
0.295507
36
0.295515
29
0.295523
30
0.295531
24
0.295538
25
0.295546
30
0.295554
34
0.295562
32
0.29557
38
0.295578
23
0.295586
22
0.295594
28
0.295602
26
0.295609
26
0.295617
18
0.295625
34
0.295633
23
0.295641
36
0.295649
24
0.295657
23
0.295665
31
0.295672
35
0.29568
23
0.295688
27
0.295696
24
0.295704
21
0.295712
28
0.29572
S 2p/9
Not Specified
2005
9
14
15
13
56
0
4
   Lens Mode:Hybrid   Resolution:Pass energy 10    Iris(Aperture):slot(Slot)
   Anode:Mono(Al (Mono))(150 W)   Step(meV): 100.0    Dwell(ms): 333        Sweeps: 20       Acquisition Time(s): 1207    
   Acquired On :05/09/14 15:13:56   C/N :On
   
XPS
16384
16384
0
Mono(Al (Mono))
1486.69
150
1E+37
1E+37
6000
6000
1E+37
1E+37
FAT
10
1E+37
-4.455
0
1E+37
1E+37
1E+37
1E+37
S
2p
-1
Kinetic Energy
eV
1312.69
0.1
2
Intensity
d
Transmission
d
pulse counting
0.333333
20
0
1E+37
1E+37
1E+37
0
362
55
100
0.299821
0.300522
61
0.299821
83
0.299824
70
0.299828
75
0.299831
74
0.299834
69
0.299838
81
0.299841
81
0.299844
67
0.299848
66
0.299851
63
0.299855
80
0.299858
95
0.299861
92
0.299865
68
0.299868
84
0.299871
67
0.299875
73
0.299878
78
0.299882
84
0.299885
81
0.299888
87
0.299892
59
0.299895
80
0.299898
66
0.299902
66
0.299905
63
0.299908
76
0.299912
91
0.299915
84
0.299919
72
0.299922
80
0.299925
84
0.299929
77
0.299932
80
0.299935
78
0.299939
81
0.299942
75
0.299945
79
0.299949
84
0.299952
89
0.299956
76
0.299959
85
0.299962
85
0.299966
90
0.299969
76
0.299972
90
0.299976
80
0.299979
84
0.299983
78
0.299986
81
0.299989
79
0.299993
84
0.299996
81
0.299999
84
0.300003
70
0.300006
88
0.300009
80
0.300013
79
0.300016
92
0.30002
72
0.300023
98
0.300026
80
0.30003
81
0.300033
86
0.300036
100
0.30004
78
0.300043
84
0.300046
82
0.30005
82
0.300053
87
0.300057
78
0.30006
84
0.300063
76
0.300067
72
0.30007
78
0.300073
85
0.300077
87
0.30008
76
0.300083
85
0.300087
80
0.30009
71
0.300094
83
0.300097
78
0.3001
78
0.300104
62
0.300107
84
0.30011
69
0.300114
69
0.300117
69
0.300121
80
0.300124
80
0.300127
74
0.300131
81
0.300134
87
0.300137
75
0.300141
73
0.300144
81
0.300147
85
0.300151
82
0.300154
74
0.300158
88
0.300161
88
0.300164
66
0.300168
88
0.300171
73
0.300174
66
0.300178
73
0.300181
92
0.300184
82
0.300188
79
0.300191
69
0.300195
100
0.300198
96
0.300201
77
0.300205
77
0.300208
83
0.300211
82
0.300215
82
0.300218
71
0.300222
71
0.300225
61
0.300228
84
0.300232
59
0.300235
75
0.300238
69
0.300242
81
0.300245
79
0.300248
70
0.300252
67
0.300255
89
0.300259
67
0.300262
85
0.300265
70
0.300269
64
0.300272
81
0.300275
82
0.300279
85
0.300282
77
0.300285
80
0.300289
83
0.300292
77
0.300296
73
0.300299
71
0.300302
72
0.300306
75
0.300309
79
0.300312
68
0.300316
76
0.300319
77
0.300323
80
0.300326
58
0.300329
68
0.300333
82
0.300336
70
0.300339
86
0.300343
78
0.300346
82
0.300349
75
0.300353
76
0.300356
95
0.30036
88
0.300363
86
0.300366
99
0.30037
75
0.300373
91
0.300376
77
0.30038
78
0.300383
55
0.30039
70
0.300401
85
0.300412
77
0.300423
68
0.300434
81
0.300445
75
0.300456
63
0.300467
73
0.300478
89
0.300489
73
0.3005
58
0.300511
73
0.300522
Au 4f/10
Not Specified
2005
9
14
15
13
56
0
4
   Lens Mode:Hybrid   Resolution:Pass energy 10    Iris(Aperture):slot(Slot)
   Anode:Mono(Al (Mono))(150 W)   Step(meV): 100.0    Dwell(ms): 200        Sweeps: 20       Acquisition Time(s): 1204    
   Acquired On :05/09/14 15:13:56   C/N :On
   
XPS
16384
16384
0
Mono(Al (Mono))
1486.69
150
1E+37
1E+37
6000
6000
1E+37
1E+37
FAT
10
1E+37
-4.455
0
1E+37
1E+37
1E+37
1E+37
Au
4f
-1
Kinetic Energy
eV
1386.69
0.1
2
Intensity
d
Transmission
d
pulse counting
0.2
20
0
1E+37
1E+37
1E+37
0
602
13
110
0.306691
0.309997
37
0.306691
55
0.306702
50
0.306713
54
0.306725
40
0.306736
51
0.306747
51
0.306758
39
0.306769
57
0.30678
33
0.306791
43
0.306802
27
0.306813
48
0.306824
44
0.306835
37
0.306846
37
0.306857
40
0.306868
46
0.306879
38
0.30689
34
0.306901
42
0.306912
38
0.306923
45
0.306934
41
0.306945
49
0.306956
25
0.306967
49
0.306978
51
0.306989
35
0.307
41
0.307011
40
0.307022
40
0.307033
49
0.307044
30
0.307055
45
0.307066
36
0.307077
29
0.307088
36
0.307099
51
0.30711
31
0.307121
39
0.307132
41
0.307143
48
0.307154
36
0.307165
43
0.307176
47
0.307187
37
0.307198
47
0.307209
30
0.30722
31
0.307231
36
0.307242
30
0.307253
41
0.307264
49
0.307275
32
0.307286
41
0.307297
39
0.307308
40
0.307319
39
0.30733
42
0.307341
32
0.307353
36
0.307364
26
0.307375
43
0.307386
43
0.307397
35
0.307408
34
0.307419
45
0.30743
29
0.307441
39
0.307452
45
0.307463
30
0.307474
36
0.307485
32
0.307496
35
0.307507
40
0.307518
33
0.307529
23
0.30754
34
0.307551
34
0.307562
25
0.307573
31
0.307584
39
0.307595
29
0.307606
33
0.307617
31
0.307628
35
0.307639
34
0.30765
28
0.307661
45
0.307672
44
0.307683
43
0.307694
45
0.307705
32
0.307716
41
0.307727
41
0.307738
36
0.307749
40
0.30776
38
0.307771
40
0.307782
37
0.307793
54
0.307804
31
0.307815
41
0.307826
42
0.307837
39
0.307848
53
0.307859
56
0.30787
50
0.307881
43
0.307892
53
0.307903
47
0.307914
51
0.307925
65
0.307936
72
0.307947
67
0.307958
83
0.307969
80
0.307981
74
0.307992
76
0.308003
86
0.308014
75
0.308025
74
0.308036
76
0.308047
81
0.308058
82
0.308069
80
0.30808
92
0.308091
89
0.308102
79
0.308113
75
0.308124
80
0.308135
71
0.308146
71
0.308157
74
0.308168
65
0.308179
55
0.30819
82
0.308201
81
0.308212
65
0.308223
65
0.308234
83
0.308245
69
0.308256
68
0.308267
77
0.308278
79
0.308289
82
0.3083
77
0.308311
90
0.308322
81
0.308333
82
0.308344
67
0.308355
83
0.308366
81
0.308377
86
0.308388
96
0.308399
70
0.30841
90
0.308421
104
0.308432
107
0.308443
110
0.308454
108
0.308465
91
0.308476
94
0.308487
91
0.308498
103
0.308509
93
0.30852
91
0.308531
85
0.308542
99
0.308553
89
0.308564
69
0.308575
83
0.308586
75
0.308597
79
0.308608
67
0.308619
56
0.308631
56
0.308642
63
0.308653
65
0.308664
52
0.308675
50
0.308686
48
0.308697
46
0.308708
51
0.308719
54
0.30873
50
0.308741
39
0.308752
50
0.308763
36
0.308774
41
0.308785
33
0.308796
33
0.308807
33
0.308818
23
0.308829
28
0.30884
34
0.308851
23
0.308862
24
0.308873
32
0.308884
24
0.308895
20
0.308906
28
0.308917
38
0.308928
29
0.308939
22
0.30895
26
0.308961
18
0.308972
19
0.308983
25
0.308994
21
0.309005
19
0.309016
28
0.309027
21
0.309038
21
0.309049
20
0.30906
24
0.309071
29
0.309082
27
0.309093
19
0.309104
25
0.309115
22
0.309126
20
0.309137
18
0.309148
22
0.309159
13
0.30917
23
0.309181
28
0.309192
21
0.309203
30
0.309214
25
0.309225
21
0.309236
16
0.309247
30
0.309259
17
0.30927
19
0.309281
29
0.309292
21
0.309303
14
0.309314
24
0.309325
19
0.309336
24
0.309347
21
0.309358
24
0.309369
24
0.30938
25
0.309391
26
0.309402
26
0.309413
28
0.309424
23
0.309435
21
0.309446
23
0.309457
19
0.309468
21
0.309479
21
0.30949
15
0.309501
22
0.309512
24
0.309523
20
0.309534
18
0.309545
22
0.309556
28
0.309567
29
0.309578
24
0.309589
19
0.3096
22
0.309611
17
0.309622
14
0.309633
24
0.309644
33
0.309655
35
0.309666
24
0.309677
23
0.309688
20
0.309699
35
0.30971
22
0.309721
26
0.309732
17
0.309743
25
0.309754
17
0.309765
24
0.309776
21
0.309787
26
0.309798
21
0.309809
22
0.30982
27
0.309831
19
0.309842
16
0.309853
22
0.309864
17
0.309875
17
0.309886
19
0.309898
27
0.309909
21
0.30992
28
0.309931
23
0.309942
23
0.309953
28
0.309964
25
0.309975
29
0.309986
26
0.309997
S 2p/13
Not Specified
2005
9
15
3
11
26
0
4
   Lens Mode:Hybrid   Resolution:Pass energy 10    Iris(Aperture):slot(Slot)
   Anode:Mono(Al (Mono))(150 W)   Step(meV): 100.0    Dwell(ms): 333        Sweeps: 161      Acquisition Time(s): 9714    
   Acquired On :05/09/15 03:11:26   C/N :On
   
XPS
16384
16384
0
Mono(Al (Mono))
1486.69
150
1E+37
1E+37
6000
6000
1E+37
1E+37
FAT
10
1E+37
-4.455
0
1E+37
1E+37
1E+37
1E+37
S
2p
-1
Kinetic Energy
eV
1312.69
0.1
2
Intensity
d
Transmission
d
pulse counting
0.333333
161
0
1E+37
1E+37
1E+37
0
362
544
671
0.299821
0.300522
579
0.299821
569
0.299824
594
0.299828
595
0.299831
579
0.299834
575
0.299838
554
0.299841
556
0.299844
589
0.299848
606
0.299851
585
0.299855
584
0.299858
590
0.299861
569
0.299865
601
0.299868
578
0.299871
595
0.299875
610
0.299878
599
0.299882
646
0.299885
604
0.299888
562
0.299892
579
0.299895
615
0.299898
566
0.299902
583
0.299905
600
0.299908
559
0.299912
562
0.299915
606
0.299919
602
0.299922
573
0.299925
643
0.299929
588
0.299932
571
0.299935
625
0.299939
586
0.299942
599
0.299945
568
0.299949
600
0.299952
607
0.299956
577
0.299959
611
0.299962
586
0.299966
605
0.299969
583
0.299972
614
0.299976
599
0.299979
621
0.299983
657
0.299986
596
0.299989
669
0.299993
624
0.299996
639
0.299999
647
0.300003
638
0.300006
598
0.300009
636
0.300013
651
0.300016
671
0.30002
652
0.300023
658
0.300026
658
0.30003
661
0.300033
626
0.300036
629
0.30004
633
0.300043
654
0.300046
623
0.30005
648
0.300053
645
0.300057
639
0.30006
653
0.300063
643
0.300067
636
0.30007
622
0.300073
663
0.300077
661
0.30008
579
0.300083
588
0.300087
565
0.30009
605
0.300094
562
0.300097
582
0.3001
612
0.300104
646
0.300107
638
0.30011
592
0.300114
635
0.300117
616
0.300121
651
0.300124
594
0.300127
598
0.300131
573
0.300134
661
0.300137
636
0.300141
592
0.300144
574
0.300147
612
0.300151
628
0.300154
614
0.300158
562
0.300161
590
0.300164
573
0.300168
606
0.300171
596
0.300174
604
0.300178
576
0.300181
606
0.300184
580
0.300188
586
0.300191
604
0.300195
621
0.300198
594
0.300201
593
0.300205
627
0.300208
617
0.300211
614
0.300215
571
0.300218
599
0.300222
612
0.300225
630
0.300228
637
0.300232
620
0.300235
582
0.300238
578
0.300242
614
0.300245
615
0.300248
606
0.300252
584
0.300255
634
0.300259
578
0.300262
651
0.300265
610
0.300269
638
0.300272
618
0.300275
544
0.300279
644
0.300282
640
0.300285
607
0.300289
576
0.300292
631
0.300296
589
0.300299
561
0.300302
609
0.300306
615
0.300309
597
0.300312
612
0.300316
573
0.300319
621
0.300323
604
0.300326
583
0.300329
610
0.300333
600
0.300336
664
0.300339
601
0.300343
603
0.300346
624
0.300349
587
0.300353
592
0.300356
617
0.30036
590
0.300363
581
0.300366
613
0.30037
633
0.300373
625
0.300376
614
0.30038
588
0.300383
585
0.30039
586
0.300401
566
0.300412
599
0.300423
593
0.300434
613
0.300445
552
0.300456
621
0.300467
605
0.300478
620
0.300489
638
0.3005
581
0.300511
603
0.300522
Au 4f/14
Not Specified
2005
9
15
3
11
26
0
4
   Lens Mode:Hybrid   Resolution:Pass energy 10    Iris(Aperture):slot(Slot)
   Anode:Mono(Al (Mono))(150 W)   Step(meV): 100.0    Dwell(ms): 200        Sweeps: 160      Acquisition Time(s): 9632    
   Acquired On :05/09/15 03:11:26   C/N :On
   
XPS
16384
16384
0
Mono(Al (Mono))
1486.69
150
1E+37
1E+37
6000
6000
1E+37
1E+37
FAT
10
1E+37
-4.455
0
1E+37
1E+37
1E+37
1E+37
Au
4f
-1
Kinetic Energy
eV
1386.69
0.1
2
Intensity
d
Transmission
d
pulse counting
0.2
160
0
1E+37
1E+37
1E+37
0
602
134
813
0.306691
0.309997
340
0.306691
362
0.306702
357
0.306713
349
0.306725
362
0.306736
343
0.306747
325
0.306758
345
0.306769
350
0.30678
339
0.306791
330
0.306802
323
0.306813
295
0.306824
315
0.306835
318
0.306846
336
0.306857
323
0.306868
312
0.306879
282
0.30689
299
0.306901
325
0.306912
325
0.306923
304
0.306934
291
0.306945
309
0.306956
327
0.306967
362
0.306978
315
0.306989
292
0.307
324
0.307011
289
0.307022
330
0.307033
302
0.307044
300
0.307055
290
0.307066
325
0.307077
322
0.307088
312
0.307099
314
0.30711
293
0.307121
321
0.307132
325
0.307143
300
0.307154
280
0.307165
325
0.307176
305
0.307187
324
0.307198
268
0.307209
282
0.30722
297
0.307231
319
0.307242
286
0.307253
299
0.307264
296
0.307275
285
0.307286
275
0.307297
273
0.307308
289
0.307319
330
0.30733
275
0.307341
271
0.307353
283
0.307364
283
0.307375
280
0.307386
288
0.307397
267
0.307408
260
0.307419
247
0.30743
275
0.307441
296
0.307452
296
0.307463
265
0.307474
289
0.307485
289
0.307496
320
0.307507
272
0.307518
278
0.307529
255
0.30754
293
0.307551
291
0.307562
269
0.307573
300
0.307584
270
0.307595
283
0.307606
282
0.307617
272
0.307628
285
0.307639
297
0.30765
289
0.307661
300
0.307672
244
0.307683
280
0.307694
280
0.307705
276
0.307716
328
0.307727
245
0.307738
290
0.307749
292
0.30776
296
0.307771
288
0.307782
283
0.307793
317
0.307804
320
0.307815
338
0.307826
342
0.307837
350
0.307848
360
0.307859
378
0.30787
352
0.307881
402
0.307892
411
0.307903
433
0.307914
474
0.307925
457
0.307936
509
0.307947
531
0.307958
583
0.307969
590
0.307981
575
0.307992
672
0.308003
639
0.308014
672
0.308025
669
0.308036
677
0.308047
724
0.308058
760
0.308069
679
0.30808
758
0.308091
649
0.308102
637
0.308113
645
0.308124
663
0.308135
671
0.308146
635
0.308157
614
0.308168
634
0.308179
554
0.30819
584
0.308201
585
0.308212
580
0.308223
609
0.308234
599
0.308245
521
0.308256
540
0.308267
589
0.308278
558
0.308289
594
0.3083
585
0.308311
604
0.308322
604
0.308333
601
0.308344
663
0.308355
630
0.308366
730
0.308377
712
0.308388
705
0.308399
726
0.30841
721
0.308421
732
0.308432
803
0.308443
804
0.308454
813
0.308465
760
0.308476
806
0.308487
766
0.308498
747
0.308509
777
0.30852
717
0.308531
687
0.308542
679
0.308553
674
0.308564
639
0.308575
617
0.308586
586
0.308597
544
0.308608
532
0.308619
547
0.308631
521
0.308642
477
0.308653
442
0.308664
454
0.308675
414
0.308686
391
0.308697
371
0.308708
359
0.308719
362
0.30873
332
0.308741
317
0.308752
298
0.308763
323
0.308774
288
0.308785
274
0.308796
242
0.308807
240
0.308818
208
0.308829
193
0.30884
218
0.308851
189
0.308862
217
0.308873
171
0.308884
181
0.308895
167
0.308906
172
0.308917
189
0.308928
160
0.308939
197
0.30895
174
0.308961
161
0.308972
176
0.308983
190
0.308994
167
0.309005
183
0.309016
166
0.309027
160
0.309038
156
0.309049
187
0.30906
190
0.309071
153
0.309082
170
0.309093
174
0.309104
153
0.309115
173
0.309126
172
0.309137
177
0.309148
178
0.309159
176
0.30917
174
0.309181
171
0.309192
180
0.309203
183
0.309214
157
0.309225
150
0.309236
154
0.309247
163
0.309259
173
0.30927
176
0.309281
170
0.309292
181
0.309303
165
0.309314
165
0.309325
182
0.309336
165
0.309347
172
0.309358
173
0.309369
186
0.30938
171
0.309391
169
0.309402
184
0.309413
185
0.309424
185
0.309435
199
0.309446
168
0.309457
184
0.309468
152
0.309479
184
0.30949
160
0.309501
185
0.309512
158
0.309523
183
0.309534
186
0.309545
168
0.309556
158
0.309567
158
0.309578
157
0.309589
160
0.3096
170
0.309611
205
0.309622
194
0.309633
166
0.309644
172
0.309655
177
0.309666
175
0.309677
187
0.309688
155
0.309699
216
0.30971
176
0.309721
178
0.309732
182
0.309743
156
0.309754
158
0.309765
170
0.309776
182
0.309787
173
0.309798
141
0.309809
181
0.30982
164
0.309831
157
0.309842
165
0.309853
139
0.309864
168
0.309875
178
0.309886
154
0.309898
162
0.309909
168
0.30992
148
0.309931
134
0.309942
162
0.309953
147
0.309964
170
0.309975
154
0.309986
174
0.309997
end of experiment

